Name: Burkeite Na6(CO3)(SO4)2
Type: Mineral
Class: Carbonate
Subclass: None
Particle Size: Unsieved coarse powder
Sample No.: NMNH 105598
Owner: Smithsonian Institute, National Museum of Nat. History
Wavelength range: 0.40 - 14.05 um
Origin: Searles Lake, California

Description: Burkeite from Searles Lake, CA





Measurement: Directional Hemispherical Reflectance
First Column: X
Second Column: Y
X Units: Wavelength (micrometers)
Y Units: Reflectance (percent)
First X Value: 14.05105
Last X Value: 0.40000
Number of X Values: 2756
Additional Information: None

 14.051   4.3981
 14.013   5.3148
 13.975   6.0770
 13.938   6.4684
 13.900   6.7465
 13.863   6.9319
 13.826   7.1997
 13.790   7.3027
 13.753   7.5087
 13.717   7.6632
 13.680   7.9104
 13.644   7.9413
 13.609   8.0855
 13.573   8.1782
 13.538   8.3018
 13.502   8.4357
 13.467   8.6932
 13.432   8.7962
 13.398   8.9301
 13.363   8.9816
 13.329   9.1258
 13.295   9.1979
 13.261   9.3318
 13.227   9.3524
 13.193   9.4966
 13.160   9.5893
 13.126   9.6820
 13.093   9.7747
 13.060   9.9189
 13.027   9.8983
 12.995   9.9807
 12.962  10.0837
 12.930  10.3309
 12.898  10.5369
 12.866  10.7944
 12.834  10.9180
 12.802  11.0828
 12.771  11.2064
 12.739  11.4227
 12.708  11.5875
 12.677  11.7008
 12.646  11.8038
 12.616  11.9480
 12.585  11.9995
 12.554  12.0819
 12.524  12.2158
 12.494  12.4321
 12.464  12.5145
 12.434  12.6175
 12.404  12.6484
 12.375  12.7102
 12.345  12.8132
 12.316  12.9780
 12.287  13.0810
 12.258  13.1737
 12.229  13.2046
 12.200  13.3076
 12.171  13.2973
 12.143  13.3282
 12.115  13.2973
 12.086  13.2870
 12.058  13.2561
 12.030  13.3179
 12.002  13.3076
 11.975  13.2870
 11.947  13.1943
 11.920  13.1943
 11.892  13.0604
 11.865  12.9677
 11.838  12.8544
 11.811  12.6175
 11.784  11.8862
 11.757  10.5163
 11.731   9.2803
 11.704   9.5069
 11.678  10.1867
 11.652  10.9489
 11.626  11.1343
 11.600  10.6914
 11.574   9.9910
 11.548   9.2803
 11.522   8.4460
 11.497   7.4469
 11.471   6.2109
 11.446   5.0573
 11.421   4.1200
 11.396   3.5020
 11.371   2.9252
 11.346   2.5235
 11.321   2.3381
 11.297   2.7295
 11.272   3.6359
 11.248   4.8822
 11.223   6.0873
 11.199   7.1276
 11.175   7.9516
 11.151   8.6520
 11.127   9.2082
 11.103   9.7335
 11.079  10.1661
 11.056  10.5060
 11.032  10.7738
 11.009  11.0622
 10.985  11.2682
 10.962  11.4845
 10.939  11.6081
 10.916  11.7523
 10.893  11.8038
 10.870  11.9274
 10.848  11.9583
 10.825  11.9068
 10.802  11.8450
 10.780  11.9995
 10.758  12.0716
 10.735  12.1540
 10.713  12.2158
 10.691  12.3085
 10.669  12.4115
 10.647  12.4939
 10.625  12.4218
 10.604  12.4527
 10.582  12.3600
 10.560  12.2879
 10.539  12.2158
 10.518  12.1231
 10.496  11.9995
 10.475  11.9274
 10.454  11.8656
 10.433  11.8862
 10.412  11.8862
 10.391  11.8450
 10.370  11.6699
 10.350  11.4536
 10.329  11.2579
 10.309  11.1343
 10.288  10.8562
 10.268  10.5678
 10.247  10.3000
 10.227  10.1043
 10.207   9.8880
 10.187   9.7129
 10.167   9.3215
 10.147   8.7962
 10.127   7.9104
 10.108   6.8598
 10.088   5.7371
 10.068   4.9028
 10.049   4.5217
 10.029   4.6865
 10.010   5.2839
  9.991   6.1800
  9.972   6.8701
  9.952   7.2718
  9.933   7.3851
  9.914   7.3439
  9.895   7.2203
  9.877   7.2306
  9.858   7.3336
  9.839   7.4572
  9.821   7.5602
  9.802   7.6941
  9.783   7.6838
  9.765   7.6323
  9.747   7.5293
  9.728   7.4263
  9.710   7.3027
  9.692   7.2615
  9.674   7.0967
  9.656   6.9525
  9.638   6.8289
  9.620   6.7053
  9.602   6.4890
  9.585   6.3757
  9.567   6.2624
  9.549   6.2212
  9.532   6.1285
  9.514   5.9946
  9.497   5.8916
  9.479   5.7989
  9.462   5.6032
  9.445   5.3972
  9.428   5.0264
  9.411   4.6968
  9.394   4.6041
  9.377   4.6865
  9.360   4.7483
  9.343   4.9028
  9.326   4.9543
  9.309   4.9646
  9.293   4.9234
  9.276   4.8616
  9.259   4.7998
  9.243   4.7998
  9.226   4.6968
  9.210   4.5835
  9.194   4.3981
  9.178   4.3363
  9.161   4.3363
  9.145   4.3054
  9.129   4.2230
  9.113   4.3466
  9.097   4.4290
  9.081   4.5011
  9.065   4.6144
  9.049   4.7689
  9.034   4.9543
  9.018   5.2633
  9.002   5.5105
  8.987   5.7474
  8.971   5.8195
  8.956   5.9637
  8.940   6.0873
  8.925   6.0976
  8.909   6.2109
  8.894   6.4581
  8.879   6.5817
  8.864   6.6847
  8.849   6.6332
  8.834   6.4993
  8.819   6.3139
  8.804   6.2006
  8.789   6.0976
  8.774   5.9843
  8.759   5.8195
  8.744   5.7886
  8.730   5.7989
  8.715   5.8916
  8.700   5.9946
  8.686   6.0976
  8.671   6.1697
  8.657   6.3448
  8.642   6.6126
  8.628   6.9525
  8.614   7.1894
  8.599   7.4057
  8.585   7.6220
  8.571   7.8383
  8.557   7.9619
  8.543   8.0031
  8.529   7.9104
  8.515   7.8074
  8.501   7.6426
  8.487   7.4778
  8.473   7.3439
  8.459   7.2512
  8.445   6.9525
  8.431   6.6229
  8.418   6.3345
  8.404   6.1182
  8.391   5.8710
  8.377   5.7268
  8.363   5.6547
  8.350   5.7268
  8.337   5.7577
  8.323   5.7989
  8.310   5.6753
  8.297   5.3663
  8.283   4.8719
  8.270   4.3054
  8.257   3.6256
  8.244   2.9458
  8.231   2.3690
  8.218   1.9879
  8.205   1.6686
  8.192   1.4729
  8.179   1.2772
  8.166   1.1124
  8.153   0.9888
  8.140   1.0094
  8.128   0.9785
  8.115   0.9270
  8.102   0.8137
  8.090   0.7725
  8.077   0.7416
  8.064   0.7107
  8.052   0.7519
  8.039   0.8343
  8.027   0.8137
  8.015   0.7931
  8.002   0.8034
  7.990   0.8858
  7.978   0.8858
  7.965   0.9167
  7.953   0.9785
  7.941   1.0300
  7.929   1.0300
  7.917   1.0094
  7.905   1.0609
  7.893   1.1227
  7.881   1.1433
  7.869   1.2772
  7.857   1.3493
  7.845   1.4420
  7.833   1.4935
  7.821   1.5656
  7.809   1.6583
  7.798   1.7510
  7.786   1.7819
  7.774   1.8849
  7.763   1.9467
  7.751   2.0188
  7.739   2.1012
  7.728   2.2351
  7.716   2.3072
  7.705   2.4514
  7.694   2.5441
  7.682   2.6368
  7.671   2.7295
  7.659   2.8531
  7.648   2.9561
  7.637   3.0488
  7.626   3.1415
  7.614   3.2445
  7.603   3.2857
  7.592   3.3578
  7.581   3.4299
  7.570   3.4814
  7.559   3.5535
  7.548   3.7080
  7.537   3.7801
  7.526   3.8110
  7.515   3.8007
  7.504   3.8419
  7.493   3.9655
  7.483   4.1406
  7.472   4.1612
  7.461   4.1921
  7.450   4.2951
  7.440   4.3569
  7.429   4.3775
  7.418   4.4290
  7.408   4.5011
  7.397   4.5423
  7.387   4.5217
  7.376   4.4908
  7.366   4.5114
  7.355   4.6041
  7.345   4.5732
  7.334   4.5011
  7.324   4.4805
  7.314   4.5217
  7.303   4.4599
  7.293   4.3878
  7.283   4.3466
  7.273   4.2642
  7.263   4.1200
  7.252   4.0376
  7.242   3.9449
  7.232   3.9140
  7.222   3.8419
  7.212   3.8316
  7.202   3.7286
  7.192   3.7080
  7.182   3.6771
  7.172   3.5535
  7.162   3.3887
  7.152   3.2342
  7.143   3.0076
  7.133   2.8222
  7.123   2.7501
  7.113   2.6677
  7.103   2.5441
  7.094   2.4617
  7.084   2.4926
  7.074   2.5338
  7.065   2.4411
  7.055   2.4205
  7.046   2.3896
  7.036   2.3690
  7.026   2.4411
  7.017   2.5338
  7.007   2.5441
  6.998   2.6265
  6.989   2.6780
  6.979   2.6574
  6.970   2.5956
  6.960   2.5853
  6.951   2.6059
  6.942   2.7089
  6.932   2.8428
  6.923   2.9252
  6.914   2.9664
  6.905   2.9973
  6.896   3.0591
  6.886   3.0900
  6.877   3.0282
  6.868   2.9870
  6.859   2.9561
  6.850   3.0900
  6.841   3.3269
  6.832   3.5226
  6.823   3.6668
  6.814   3.8831
  6.805   4.1303
  6.796   4.3672
  6.787   4.4599
  6.778   4.6144
  6.770   4.7380
  6.761   4.7792
  6.752   4.6762
  6.743   4.4290
  6.734   4.0788
  6.726   3.7595
  6.717   3.4917
  6.708   3.2960
  6.700   3.1518
  6.691   3.1209
  6.682   3.0282
  6.674   2.8222
  6.665   2.6471
  6.657   2.4514
  6.648   2.2042
  6.640   1.9467
  6.631   1.7201
  6.623   1.6480
  6.614   1.5862
  6.606   1.5244
  6.597   1.5141
  6.589   1.4626
  6.581   1.4008
  6.572   1.3905
  6.564   1.3493
  6.556   1.3905
  6.547   1.4523
  6.539   1.5244
  6.531   1.5450
  6.523   1.5965
  6.514   1.5862
  6.506   1.6377
  6.498   1.6068
  6.490   1.5759
  6.482   1.6377
  6.474   1.7201
  6.466   1.7716
  6.458   1.8540
  6.450   1.8952
  6.442   1.9467
  6.434   1.9364
  6.426   1.9261
  6.418   1.9982
  6.410   1.9570
  6.402   1.9982
  6.394   2.0806
  6.386   2.0497
  6.378   2.0291
  6.370   2.0394
  6.363   2.0806
  6.355   2.1218
  6.347   2.1012
  6.339   2.0497
  6.332   2.1527
  6.324   2.2351
  6.316   2.2454
  6.308   2.2454
  6.301   2.3484
  6.293   2.3999
  6.286   2.4205
  6.278   2.4514
  6.270   2.5132
  6.263   2.5544
  6.255   2.5750
  6.248   2.5544
  6.240   2.5647
  6.233   2.5544
  6.225   2.5647
  6.218   2.5750
  6.210   2.6368
  6.203   2.6780
  6.195   2.7295
  6.188   2.7604
  6.181   2.8222
  6.173   2.9046
  6.166   2.9561
  6.159   2.9973
  6.151   3.1209
  6.144   3.2548
  6.137   3.3784
  6.130   3.5020
  6.122   3.5741
  6.115   3.5844
  6.108   3.6359
  6.101   3.8316
  6.094   4.0067
  6.086   4.1612
  6.079   4.2848
  6.072   4.3363
  6.065   4.4702
  6.058   4.6453
  6.051   4.6865
  6.044   4.6659
  6.037   4.9646
  6.030   5.2839
  6.023   5.4899
  6.016   5.6135
  6.009   5.7474
  6.002   5.9328
  5.995   6.0873
  5.988   6.0667
  5.981   6.1697
  5.974   6.4375
  5.967   6.5714
  5.960   6.6744
  5.954   6.9422
  5.947   7.0658
  5.940   7.0864
  5.933   7.0349
  5.926   7.3542
  5.920   7.6632
  5.913   7.8692
  5.906   8.0958
  5.899   8.2194
  5.893   8.1473
  5.886   8.3430
  5.879   8.4357
  5.873   8.6726
  5.866   9.0434
  5.859   9.2597
  5.853   9.5584
  5.846   9.8159
  5.840  10.0528
  5.833  10.2382
  5.827  10.2691
  5.820  10.3000
  5.813  10.5884
  5.807  11.0519
  5.800  11.2373
  5.794  11.2991
  5.788  11.4124
  5.781  11.4742
  5.775  11.4124
  5.768  11.3094
  5.762  11.1549
  5.755  11.4639
  5.749  11.6596
  5.743  11.5875
  5.736  11.6184
  5.730  11.5154
  5.724  11.1755
  5.717  10.5575
  5.711   9.7026
  5.705   8.6005
  5.698   7.3130
  5.692   5.9122
  5.686   4.5732
  5.680   3.6668
  5.674   3.1209
  5.667   2.8737
  5.661   2.8943
  5.655   3.1003
  5.649   3.6153
  5.643   4.4290
  5.637   5.7989
  5.630   7.6838
  5.624   9.6202
  5.618  11.3712
  5.612  12.7823
  5.606  13.9153
  5.600  14.6981
  5.594  15.3779
  5.588  15.9341
  5.582  16.1813
  5.576  16.3770
  5.570  16.9023
  5.564  17.3864
  5.558  17.6233
  5.552  17.7263
  5.546  17.9323
  5.540  18.2001
  5.534  18.4473
  5.528  18.6224
  5.523  18.7048
  5.517  18.8078
  5.511  19.0344
  5.505  19.2610
  5.499  19.4258
  5.493  19.5494
  5.487  19.7245
  5.482  19.8687
  5.476  19.9614
  5.470  20.2086
  5.464  20.3322
  5.459  20.4661
  5.453  20.8987
  5.447  21.1768
  5.441  21.3725
  5.436  21.5373
  5.430  21.7536
  5.424  21.7742
  5.419  21.6815
  5.413  22.0008
  5.407  22.3716
  5.402  22.5879
  5.396  22.7939
  5.390  22.8969
  5.385  23.0102
  5.379  23.1235
  5.374  23.2265
  5.368  23.2780
  5.363  23.3707
  5.357  23.4016
  5.352  23.3192
  5.346  23.2265
  5.341  23.4840
  5.335  23.7415
  5.330  23.8651
  5.324  23.9578
  5.319  24.0402
  5.313  24.1020
  5.308  24.1741
  5.302  24.2462
  5.297  24.2977
  5.291  24.2565
  5.286  24.3492
  5.281  24.5346
  5.275  24.5655
  5.270  24.6376
  5.265  24.7612
  5.259  24.8333
  5.254  24.8951
  5.249  24.9569
  5.243  25.0187
  5.238  25.0290
  5.233  25.0393
  5.227  25.1938
  5.222  25.2865
  5.217  25.2865
  5.212  25.2041
  5.206  25.3071
  5.201  25.4925
  5.196  25.4410
  5.191  25.5337
  5.186  25.6470
  5.180  25.6676
  5.175  25.6470
  5.170  25.6779
  5.165  25.6779
  5.160  25.6779
  5.155  25.6882
  5.150  25.6676
  5.145  25.5852
  5.139  25.6985
  5.134  25.8118
  5.129  25.8221
  5.124  25.8839
  5.119  25.9766
  5.114  26.0178
  5.109  26.0796
  5.104  26.0693
  5.099  26.0693
  5.094  26.1105
  5.089  26.1208
  5.084  26.0590
  5.079  25.9663
  5.074  25.9045
  5.069  25.7912
  5.064  25.5646
  5.059  25.3689
  5.054  25.1423
  5.049  24.9466
  5.044  24.8127
  5.040  24.7509
  5.035  24.7097
  5.030  24.7406
  5.025  24.8127
  5.020  24.9569
  5.015  25.1423
  5.010  25.3895
  5.005  25.5543
  5.001  25.6470
  4.996  25.6882
  4.991  25.7294
  4.986  25.6573
  4.981  25.5852
  4.977  25.5646
  4.972  25.5028
  4.967  25.4204
  4.962  25.3689
  4.958  25.2556
  4.953  25.1423
  4.948  25.0702
  4.943  24.9878
  4.939  24.8745
  4.934  24.7818
  4.929  24.6685
  4.925  24.5552
  4.920  24.3904
  4.915  24.2050
  4.911  24.0402
  4.906  23.8651
  4.901  23.7003
  4.897  23.5664
  4.892  23.3501
  4.888  23.1029
  4.883  22.8042
  4.878  22.5055
  4.874  22.1862
  4.869  21.8566
  4.865  21.4755
  4.860  21.0944
  4.856  20.7133
  4.851  20.3837
  4.846  19.9923
  4.842  19.5288
  4.837  19.0138
  4.833  18.4576
  4.828  17.8087
  4.824  17.0877
  4.819  16.3255
  4.815  15.5324
  4.810  14.6672
  4.806  13.6784
  4.802  12.6793
  4.797  11.6905
  4.793  10.7223
  4.788   9.8262
  4.784   8.9919
  4.779   8.3121
  4.775   7.7147
  4.771   7.2615
  4.766   6.8701
  4.762   6.4684
  4.758   6.1800
  4.753   5.9019
  4.749   5.6650
  4.744   5.5414
  4.740   5.4796
  4.736   5.4693
  4.731   5.4487
  4.727   5.4590
  4.723   5.5517
  4.719   5.6547
  4.714   5.7474
  4.710   5.8298
  4.706   5.8607
  4.701   5.9740
  4.697   6.1903
  4.693   6.3139
  4.689   6.3654
  4.684   6.4375
  4.680   6.5714
  4.676   6.7156
  4.672   6.8495
  4.668   6.9834
  4.663   7.0452
  4.659   7.1688
  4.655   7.3542
  4.651   7.4984
  4.647   7.5911
  4.643   7.6941
  4.638   7.7868
  4.634   7.9928
  4.630   8.1885
  4.626   8.2915
  4.622   8.4151
  4.618   8.6314
  4.614   8.7962
  4.610   8.9816
  4.605   9.1773
  4.601   9.3215
  4.597   9.5172
  4.593   9.6923
  4.589   9.8571
  4.585   9.9910
  4.581  10.1455
  4.577  10.3000
  4.573  10.5060
  4.569  10.8047
  4.565  11.1137
  4.561  11.4536
  4.557  11.9068
  4.553  12.3909
  4.549  12.9059
  4.545  13.3591
  4.541  13.7402
  4.537  14.1110
  4.533  14.3479
  4.529  14.5024
  4.525  14.6054
  4.521  14.5745
  4.517  14.4612
  4.513  14.3479
  4.509  14.1728
  4.505  13.9256
  4.502  13.6578
  4.498  13.4106
  4.494  13.0604
  4.490  12.7514
  4.486  12.5248
  4.482  12.2364
  4.478  11.9480
  4.474  11.7008
  4.470  11.4948
  4.467  11.3197
  4.463  11.1034
  4.459  10.9283
  4.455  10.8047
  4.451  10.6399
  4.447  10.5163
  4.444  10.4545
  4.440  10.4442
  4.436  10.4339
  4.432  10.3721
  4.428  10.3618
  4.425  10.4545
  4.421  10.4648
  4.417  10.3721
  4.413  10.3309
  4.410  10.3515
  4.406  10.3309
  4.402  10.3000
  4.398  10.3515
  4.395  10.4648
  4.391  10.5060
  4.387  10.5678
  4.384  10.6399
  4.380  10.7017
  4.376  10.7532
  4.372  10.8150
  4.369  10.8871
  4.365  10.9798
  4.361  11.0210
  4.358  11.0210
  4.354  11.1034
  4.350  11.2167
  4.347  11.3403
  4.343  11.5360
  4.340  11.7111
  4.336  11.8450
  4.332  11.9995
  4.329  12.1643
  4.325  12.3291
  4.321  12.5042
  4.318  12.7308
  4.314  12.9986
  4.311  13.3179
  4.307  13.5239
  4.304  13.6887
  4.300  13.9771
  4.296  14.2861
  4.293  14.5436
  4.289  14.7599
  4.286  15.0586
  4.282  15.3367
  4.279  15.6354
  4.275  15.9959
  4.272  16.3049
  4.268  16.5212
  4.265  16.8096
  4.261  17.0465
  4.258  17.2422
  4.254  17.5924
  4.251  17.9735
  4.247  18.3752
  4.244  18.7563
  4.240  19.0344
  4.237  19.3434
  4.233  19.5906
  4.230  19.8275
  4.226  20.0747
  4.223  20.3116
  4.219  20.5279
  4.216  20.7545
  4.213  21.0120
  4.209  21.2386
  4.206  21.4137
  4.202  21.6815
  4.199  21.9493
  4.196  22.1553
  4.192  22.3716
  4.189  22.5776
  4.185  22.7630
  4.182  22.9381
  4.179  23.1544
  4.175  23.3604
  4.172  23.4325
  4.169  23.4634
  4.165  23.5870
  4.162  23.6488
  4.159  23.6385
  4.155  23.6591
  4.152  23.7312
  4.149  23.8136
  4.145  23.7930
  4.142  23.7312
  4.139  23.6694
  4.135  23.5767
  4.132  23.4119
  4.129  23.2574
  4.126  23.1338
  4.122  22.8969
  4.119  22.6085
  4.116  22.4025
  4.112  22.1553
  4.109  21.7742
  4.106  21.3416
  4.103  20.8369
  4.099  20.3734
  4.096  19.9305
  4.093  19.3743
  4.090  18.7048
  4.086  17.9014
  4.083  16.9744
  4.080  15.9032
  4.077  14.7599
  4.074  13.5136
  4.070  12.2467
  4.067  11.0519
  4.064   9.9910
  4.061   9.0331
  4.058   8.4151
  4.055   8.0134
  4.051   7.7662
  4.048   7.7456
  4.045   7.8486
  4.042   7.9722
  4.039   8.1370
  4.036   8.2606
  4.032   8.3739
  4.029   8.4254
  4.026   8.3945
  4.023   8.2709
  4.020   8.2194
  4.017   8.1576
  4.014   8.1576
  4.011   8.2709
  4.008   8.4151
  4.004   8.5284
  4.001   8.6520
  3.998   8.8374
  3.995   9.0228
  3.992   9.0640
  3.989   9.0537
  3.986   9.0640
  3.983   9.0640
  3.980   9.0846
  3.977   9.0022
  3.974   8.8889
  3.971   8.8683
  3.968   8.8786
  3.965   8.8889
  3.962   8.9198
  3.959   9.0949
  3.956   9.3112
  3.953   9.5996
  3.950   9.9189
  3.947  10.2382
  3.944  10.5060
  3.941  10.8253
  3.938  11.0828
  3.935  11.2682
  3.932  11.5463
  3.929  11.9377
  3.926  12.3600
  3.923  12.9265
  3.920  13.7608
  3.917  14.7496
  3.914  15.7899
  3.911  16.9435
  3.908  18.2825
  3.905  19.6009
  3.902  20.7236
  3.899  21.7845
  3.896  22.6909
  3.893  23.4119
  3.890  23.9166
  3.887  24.3389
  3.884  24.6891
  3.882  24.9260
  3.879  25.0908
  3.876  25.2865
  3.873  25.4101
  3.870  25.4719
  3.867  25.6264
  3.864  25.8427
  3.861  25.9457
  3.858  25.9766
  3.856  26.0384
  3.853  26.1414
  3.850  26.2547
  3.847  26.2753
  3.844  26.3062
  3.841  26.4710
  3.838  26.6152
  3.836  26.6564
  3.833  26.6873
  3.830  26.7491
  3.827  26.8212
  3.824  26.9345
  3.822  27.0787
  3.819  27.1405
  3.816  27.2023
  3.813  27.2435
  3.810  27.2641
  3.807  27.3568
  3.805  27.4392
  3.802  27.5113
  3.799  27.6143
  3.796  27.7585
  3.794  27.8409
  3.791  27.8512
  3.788  27.9027
  3.785  28.0366
  3.782  28.1705
  3.780  28.2220
  3.777  28.2323
  3.774  28.3044
  3.771  28.4280
  3.769  28.4486
  3.766  28.5516
  3.763  28.7267
  3.761  28.7782
  3.758  28.7473
  3.755  28.7576
  3.752  28.8709
  3.750  28.8915
  3.747  28.9842
  3.744  29.0872
  3.742  29.1593
  3.739  29.2005
  3.736  29.2520
  3.733  29.2726
  3.731  29.2932
  3.728  29.3344
  3.725  29.3138
  3.723  29.2108
  3.720  29.2005
  3.717  29.1078
  3.715  28.8915
  3.712  28.6443
  3.709  28.3971
  3.707  28.2632
  3.704  28.1808
  3.702  28.1396
  3.699  28.1396
  3.696  28.2014
  3.694  28.2529
  3.691  28.3353
  3.688  28.3868
  3.686  28.4486
  3.683  28.5207
  3.680  28.5619
  3.678  28.5928
  3.675  28.5825
  3.673  28.5516
  3.670  28.5722
  3.667  28.6031
  3.665  28.5104
  3.662  28.4280
  3.660  28.4898
  3.657  28.4692
  3.655  28.3353
  3.652  28.2426
  3.649  28.2323
  3.647  28.2014
  3.644  28.1705
  3.642  28.1190
  3.639  28.1087
  3.637  28.1602
  3.634  28.1190
  3.632  28.0984
  3.629  28.0675
  3.626  27.9645
  3.624  27.8100
  3.621  27.6452
  3.619  27.6143
  3.616  27.6246
  3.614  27.5010
  3.611  27.3053
  3.609  27.1096
  3.606  26.9036
  3.604  26.6770
  3.601  26.3577
  3.599  26.0384
  3.596  25.7191
  3.594  25.3483
  3.591  24.9878
  3.589  24.7303
  3.586  24.5655
