Name: Trona Na3(CO)(HCO3) * 2H2O
Type: Mineral
Class: Carbonate
Subclass: None
Particle Size: Unsieved coarse powder
Sample No.: None
Owner: USGS
Wavelength range: 0.40 - 14.05 um
Origin: Green River Formation, Wyoming

Description: Trona, from the Green River Formation, Wyoming





Measurement: Directional Hemispherical Reflectance
First Column: X
Second Column: Y
X Units: Wavelength (micrometers)
Y Units: Reflectance (percent)
First X Value: 14.05105
Last X Value: 0.40000
Number of X Values: 2756
Additional Information: None

 14.051   1.3081
 14.013   1.2360
 13.975   1.3390
 13.938   1.2257
 13.900   1.2772
 13.863   1.3493
 13.826   1.4317
 13.790   1.3390
 13.753   1.3287
 13.717   1.3287
 13.680   1.4008
 13.644   1.3184
 13.609   1.4832
 13.573   1.5553
 13.538   1.6068
 13.502   1.5862
 13.467   1.6171
 13.432   1.5656
 13.398   1.6583
 13.363   1.6686
 13.329   1.7613
 13.295   1.7098
 13.261   1.7407
 13.227   1.7407
 13.193   1.8231
 13.160   1.8025
 13.126   1.8952
 13.093   1.9055
 13.060   1.9055
 13.027   1.9055
 12.995   2.0188
 12.962   1.9982
 12.930   2.0085
 12.898   1.9776
 12.866   2.0291
 12.834   2.0085
 12.802   2.0806
 12.771   2.0806
 12.739   2.1218
 12.708   2.1012
 12.677   2.1836
 12.646   2.1321
 12.616   2.1630
 12.585   2.1939
 12.554   2.1939
 12.524   2.0909
 12.494   2.1527
 12.464   2.2351
 12.434   2.2866
 12.404   2.1424
 12.375   2.1115
 12.345   2.0703
 12.316   2.0909
 12.287   2.1115
 12.258   2.1836
 12.229   2.1733
 12.200   2.2145
 12.171   2.2042
 12.143   2.2969
 12.115   2.2763
 12.086   2.2763
 12.058   2.2763
 12.030   2.3793
 12.002   2.4205
 11.975   2.5029
 11.947   2.5029
 11.920   2.6162
 11.892   2.6986
 11.865   2.9149
 11.838   3.1312
 11.811   3.6256
 11.784   4.3981
 11.757   5.5105
 11.731   6.4890
 11.704   6.8907
 11.678   6.5302
 11.652   5.8401
 11.626   4.9337
 11.600   4.1406
 11.574   3.5329
 11.548   3.1621
 11.522   2.8325
 11.497   2.6780
 11.471   2.5029
 11.446   2.4308
 11.421   2.3690
 11.396   2.3381
 11.371   2.1939
 11.346   2.1836
 11.321   2.1424
 11.297   2.1012
 11.272   2.0394
 11.248   2.1218
 11.223   2.0600
 11.199   2.0806
 11.175   2.0806
 11.151   2.0909
 11.127   2.0394
 11.103   2.0497
 11.079   2.0291
 11.056   2.0909
 11.032   2.0600
 11.009   2.0394
 10.985   2.0188
 10.962   2.1012
 10.939   2.0497
 10.916   2.0394
 10.893   2.0085
 10.870   2.0600
 10.848   2.0394
 10.825   2.0703
 10.802   2.1012
 10.780   2.1424
 10.758   2.0497
 10.735   2.0806
 10.713   2.0497
 10.691   2.0806
 10.669   2.0909
 10.647   2.0909
 10.625   2.0291
 10.604   2.0909
 10.582   2.0703
 10.560   2.0806
 10.539   2.0600
 10.518   2.1115
 10.496   2.0909
 10.475   2.0909
 10.454   2.0806
 10.433   2.1424
 10.412   2.1321
 10.391   2.1939
 10.370   2.1424
 10.350   2.1630
 10.329   2.1218
 10.309   2.1321
 10.288   2.0703
 10.268   2.1115
 10.247   2.1527
 10.227   2.2042
 10.207   2.1733
 10.187   2.1939
 10.167   2.1630
 10.147   2.1733
 10.127   2.1115
 10.108   2.1424
 10.088   2.1527
 10.068   2.1733
 10.049   2.1424
 10.029   2.2042
 10.010   2.1939
  9.991   2.1733
  9.972   2.1321
  9.952   2.1836
  9.933   2.2042
  9.914   2.2660
  9.895   2.2042
  9.877   2.2042
  9.858   2.2248
  9.839   2.2351
  9.821   2.2145
  9.802   2.2763
  9.783   2.2248
  9.765   2.2042
  9.747   2.1733
  9.728   2.1836
  9.710   2.1527
  9.692   2.2248
  9.674   2.1836
  9.656   2.1321
  9.638   2.0600
  9.620   2.0497
  9.602   2.0188
  9.585   2.0291
  9.567   1.9261
  9.549   1.8437
  9.532   1.6480
  9.514   1.6480
  9.497   1.8437
  9.479   2.0703
  9.462   2.2248
  9.445   2.3175
  9.428   2.2557
  9.411   2.2763
  9.394   2.2969
  9.377   2.3278
  9.360   2.3484
  9.343   2.3381
  9.326   2.2557
  9.309   2.2763
  9.293   2.2248
  9.276   2.2248
  9.259   2.2248
  9.243   2.2866
  9.226   2.2660
  9.210   2.3072
  9.194   2.2866
  9.178   2.2969
  9.161   2.2660
  9.145   2.3072
  9.129   2.3072
  9.113   2.2969
  9.097   2.1939
  9.081   2.1630
  9.065   2.1836
  9.049   2.2145
  9.034   2.2145
  9.018   2.2660
  9.002   2.2248
  8.987   2.1836
  8.971   2.1836
  8.956   2.2557
  8.940   2.2969
  8.925   2.2763
  8.909   2.1836
  8.894   2.2557
  8.879   2.2351
  8.864   2.2248
  8.849   2.1733
  8.834   2.1836
  8.819   2.1630
  8.804   2.2042
  8.789   2.1836
  8.774   2.1836
  8.759   2.1939
  8.744   2.2145
  8.730   2.1836
  8.715   2.2454
  8.700   2.2557
  8.686   2.2454
  8.671   2.1733
  8.657   2.1424
  8.642   2.1115
  8.628   2.1733
  8.614   2.2145
  8.599   2.2454
  8.585   2.1527
  8.571   2.1424
  8.557   2.1424
  8.543   2.1836
  8.529   2.1733
  8.515   2.2145
  8.501   2.2351
  8.487   2.2969
  8.473   2.3072
  8.459   2.3381
  8.445   2.3072
  8.431   2.2763
  8.418   2.2660
  8.404   2.3072
  8.391   2.3072
  8.377   2.3690
  8.363   2.3896
  8.350   2.3896
  8.337   2.3278
  8.323   2.3278
  8.310   2.2969
  8.297   2.2866
  8.283   2.2763
  8.270   2.3072
  8.257   2.2557
  8.244   2.2248
  8.231   2.2351
  8.218   2.2763
  8.205   2.2248
  8.192   2.2042
  8.179   2.1630
  8.166   2.1836
  8.153   2.1630
  8.140   2.1218
  8.128   2.0909
  8.115   2.1115
  8.102   2.0497
  8.090   2.0497
  8.077   2.0600
  8.064   2.0806
  8.052   2.0085
  8.039   1.9776
  8.027   2.0085
  8.015   2.0188
  8.002   1.9879
  7.990   1.9879
  7.978   1.9261
  7.965   1.9158
  7.953   1.8437
  7.941   1.8128
  7.929   1.7819
  7.917   1.8437
  7.905   1.8437
  7.893   1.8437
  7.881   1.8128
  7.869   1.8128
  7.857   1.7716
  7.845   1.7613
  7.833   1.7201
  7.821   1.6892
  7.809   1.6583
  7.798   1.6789
  7.786   1.6686
  7.774   1.6789
  7.763   1.6377
  7.751   1.6274
  7.739   1.6068
  7.728   1.6068
  7.716   1.5656
  7.705   1.5965
  7.694   1.5759
  7.682   1.5759
  7.671   1.5450
  7.659   1.5759
  7.648   1.5656
  7.637   1.6068
  7.626   1.5759
  7.614   1.5450
  7.603   1.5244
  7.592   1.5141
  7.581   1.5244
  7.570   1.5553
  7.559   1.5347
  7.548   1.5347
  7.537   1.5244
  7.526   1.5450
  7.515   1.4935
  7.504   1.4523
  7.493   1.4523
  7.483   1.4935
  7.472   1.4832
  7.461   1.4626
  7.450   1.4317
  7.440   1.4626
  7.429   1.4626
  7.418   1.4626
  7.408   1.4008
  7.397   1.4317
  7.387   1.4420
  7.376   1.4626
  7.366   1.4523
  7.355   1.4523
  7.345   1.3802
  7.334   1.3596
  7.324   1.3699
  7.314   1.3699
  7.303   1.3390
  7.293   1.4008
  7.283   1.4008
  7.273   1.3699
  7.263   1.3390
  7.252   1.3596
  7.242   1.3596
  7.232   1.3699
  7.222   1.3596
  7.212   1.3493
  7.202   1.3390
  7.192   1.3287
  7.182   1.2978
  7.172   1.3287
  7.162   1.3390
  7.152   1.3184
  7.143   1.2772
  7.133   1.3081
  7.123   1.3184
  7.113   1.3287
  7.103   1.2669
  7.094   1.2772
  7.084   1.2875
  7.074   1.3081
  7.065   1.3081
  7.055   1.3390
  7.046   1.3390
  7.036   1.3596
  7.026   1.3184
  7.017   1.3390
  7.007   1.3287
  6.998   1.3390
  6.989   1.3493
  6.979   1.3596
  6.970   1.3802
  6.960   1.4626
  6.951   1.5038
  6.942   1.5038
  6.932   1.4832
  6.923   1.5038
  6.914   1.5347
  6.905   1.6171
  6.896   1.6789
  6.886   1.6789
  6.877   1.6686
  6.868   1.7407
  6.859   1.8643
  6.850   1.9673
  6.841   1.9570
  6.832   1.9467
  6.823   1.9776
  6.814   2.0600
  6.805   2.1115
  6.796   2.1939
  6.787   2.2866
  6.778   2.3175
  6.770   2.2763
  6.761   2.2763
  6.752   2.2660
  6.743   2.2454
  6.734   2.2248
  6.726   2.2351
  6.717   2.1733
  6.708   2.1218
  6.700   1.9982
  6.691   1.9467
  6.682   1.9055
  6.674   1.8643
  6.665   1.6995
  6.657   1.5553
  6.648   1.4729
  6.640   1.4729
  6.631   1.4111
  6.623   1.2566
  6.614   1.1639
  6.606   1.1433
  6.597   1.1021
  6.589   1.0815
  6.581   1.0300
  6.572   1.0403
  6.564   1.0197
  6.556   0.9888
  6.547   0.9476
  6.539   0.8858
  6.531   0.8652
  6.523   0.8961
  6.514   0.8652
  6.506   0.8652
  6.498   0.8446
  6.490   0.8755
  6.482   0.8755
  6.474   0.8549
  6.466   0.8034
  6.458   0.8137
  6.450   0.8240
  6.442   0.8034
  6.434   0.7725
  6.426   0.7725
  6.418   0.7725
  6.410   0.8240
  6.402   0.7725
  6.394   0.7519
  6.386   0.7725
  6.378   0.7828
  6.370   0.7622
  6.363   0.7828
  6.355   0.7519
  6.347   0.7622
  6.339   0.7725
  6.332   0.7828
  6.324   0.7828
  6.316   0.7725
  6.308   0.7416
  6.301   0.7519
  6.293   0.7828
  6.286   0.8137
  6.278   0.8240
  6.270   0.8240
  6.263   0.8343
  6.255   0.8446
  6.248   0.8652
  6.240   0.8652
  6.233   0.8343
  6.225   0.8240
  6.218   0.8240
  6.210   0.8549
  6.203   0.8446
  6.195   0.8652
  6.188   0.8961
  6.181   0.9373
  6.173   0.9373
  6.166   0.9270
  6.159   0.9064
  6.151   0.9270
  6.144   0.9064
  6.137   0.9270
  6.130   0.9270
  6.122   0.9373
  6.115   0.9785
  6.108   1.0403
  6.101   1.0094
  6.094   1.0197
  6.086   1.0197
  6.079   1.0094
  6.072   0.9991
  6.065   1.0300
  6.058   1.0197
  6.051   0.9888
  6.044   1.0506
  6.037   1.0609
  6.030   1.0197
  6.023   1.0712
  6.016   1.0918
  6.009   1.0918
  6.002   1.0815
  5.995   1.0815
  5.988   1.1021
  5.981   1.1227
  5.974   1.1330
  5.967   1.1536
  5.960   1.1742
  5.954   1.1948
  5.947   1.1948
  5.940   1.2257
  5.933   1.2463
  5.926   1.2566
  5.920   1.2566
  5.913   1.2669
  5.906   1.2360
  5.899   1.2463
  5.893   1.2978
  5.886   1.3081
  5.879   1.3184
  5.873   1.3390
  5.866   1.2669
  5.859   1.2566
  5.853   1.2772
  5.846   1.2978
  5.840   1.2669
  5.833   1.2772
  5.827   1.2978
  5.820   1.3081
  5.813   1.2978
  5.807   1.2772
  5.800   1.2360
  5.794   1.2154
  5.788   1.1845
  5.781   1.1742
  5.775   1.1536
  5.768   1.1639
  5.762   1.1742
  5.755   1.1433
  5.749   1.1021
  5.743   1.1433
  5.736   1.1536
  5.730   1.1227
  5.724   1.0712
  5.717   1.0609
  5.711   1.0403
  5.705   1.0506
  5.698   1.0403
  5.692   1.0300
  5.686   0.9991
  5.680   0.9785
  5.674   0.9888
  5.667   0.9888
  5.661   0.9888
  5.655   0.9682
  5.649   0.9579
  5.643   0.9888
  5.637   0.9785
  5.630   0.9167
  5.624   0.8755
  5.618   0.9064
  5.612   0.9270
  5.606   0.9270
  5.600   0.9270
  5.594   0.9167
  5.588   0.9167
  5.582   0.9373
  5.576   0.9373
  5.570   0.9270
  5.564   0.8961
  5.558   0.8961
  5.552   0.8961
  5.546   0.8961
  5.540   0.8858
  5.534   0.8858
  5.528   0.8961
  5.523   0.8961
  5.517   0.8858
  5.511   0.8549
  5.505   0.8240
  5.499   0.8446
  5.493   0.8652
  5.487   0.8858
  5.482   0.8961
  5.476   0.8961
  5.470   0.8858
  5.464   0.9064
  5.459   0.9270
  5.453   0.9167
  5.447   0.8858
  5.441   0.8755
  5.436   0.8961
  5.430   0.9373
  5.424   0.9167
  5.419   0.8961
  5.413   0.9064
  5.407   0.8858
  5.402   0.8961
  5.396   0.9270
  5.390   0.9373
  5.385   0.9270
  5.379   0.9167
  5.374   0.9373
  5.368   0.9476
  5.363   0.9476
  5.357   0.9373
  5.352   0.9373
  5.346   0.9270
  5.341   0.9476
  5.335   0.9579
  5.330   0.9373
  5.324   0.9270
  5.319   0.9476
  5.313   0.9579
  5.308   0.9579
  5.302   0.9373
  5.297   0.9373
  5.291   0.9785
  5.286   0.9785
  5.281   0.9476
  5.275   0.9682
  5.270   0.9682
  5.265   0.9888
  5.259   0.9785
  5.254   0.9785
  5.249   0.9888
  5.243   1.0094
  5.238   0.9888
  5.233   0.9785
  5.227   0.9888
  5.222   1.0300
  5.217   1.0197
  5.212   1.0197
  5.206   1.0300
  5.201   1.0403
  5.196   1.0094
  5.191   1.0094
  5.186   1.0300
  5.180   1.0300
  5.175   1.0197
  5.170   1.0094
  5.165   1.0197
  5.160   1.0300
  5.155   1.0403
  5.150   1.0506
  5.145   1.0403
  5.139   1.0609
  5.134   1.0506
  5.129   1.0609
  5.124   1.0609
  5.119   1.0815
  5.114   1.0712
  5.109   1.0609
  5.104   1.0609
  5.099   1.0815
  5.094   1.0712
  5.089   1.1021
  5.084   1.1227
  5.079   1.1433
  5.074   1.1227
  5.069   1.1124
  5.064   1.0918
  5.059   1.0815
  5.054   1.0918
  5.049   1.1021
  5.044   1.1227
  5.040   1.1433
  5.035   1.1227
  5.030   1.1021
  5.025   1.1227
  5.020   1.1433
  5.015   1.1433
  5.010   1.1330
  5.005   1.1330
  5.001   1.1433
  4.996   1.1227
  4.991   1.1227
  4.986   1.1433
  4.981   1.1948
  4.977   1.1742
  4.972   1.1433
  4.967   1.1639
  4.962   1.1948
  4.958   1.1845
  4.953   1.1845
  4.948   1.1845
  4.943   1.1948
  4.939   1.2154
  4.934   1.2154
  4.929   1.2051
  4.925   1.2051
  4.920   1.1948
  4.915   1.2154
  4.911   1.2463
  4.906   1.2360
  4.901   1.2257
  4.897   1.2463
  4.892   1.2566
  4.888   1.2669
  4.883   1.2463
  4.878   1.2360
  4.874   1.2463
  4.869   1.2463
  4.865   1.2154
  4.860   1.2257
  4.856   1.2669
  4.851   1.2875
  4.846   1.2772
  4.842   1.2566
  4.837   1.2463
  4.833   1.2669
  4.828   1.3390
  4.824   1.3390
  4.819   1.3081
  4.815   1.2875
  4.810   1.2875
  4.806   1.3184
  4.802   1.3287
  4.797   1.3081
  4.793   1.3184
  4.788   1.3390
  4.784   1.3287
  4.779   1.3081
  4.775   1.3081
  4.771   1.3184
  4.766   1.3493
  4.762   1.3493
  4.758   1.3493
  4.753   1.3287
  4.749   1.3287
  4.744   1.3699
  4.740   1.3699
  4.736   1.3596
  4.731   1.3493
  4.727   1.3493
  4.723   1.4111
  4.719   1.4523
  4.714   1.4111
  4.710   1.3699
  4.706   1.3905
  4.701   1.4214
  4.697   1.4317
  4.693   1.4832
  4.689   1.4729
  4.684   1.4317
  4.680   1.4420
  4.676   1.4832
  4.672   1.4935
  4.668   1.4935
  4.663   1.5038
  4.659   1.4935
  4.655   1.4420
  4.651   1.4214
  4.647   1.4317
  4.643   1.4832
  4.638   1.4729
  4.634   1.4626
  4.630   1.5141
  4.626   1.5141
  4.622   1.4832
  4.618   1.4832
  4.614   1.4935
  4.610   1.4832
  4.605   1.4729
  4.601   1.5244
  4.597   1.5347
  4.593   1.4935
  4.589   1.4729
  4.585   1.4832
  4.581   1.5141
  4.577   1.5347
  4.573   1.5553
  4.569   1.5450
  4.565   1.5244
  4.561   1.5347
  4.557   1.5244
  4.553   1.5141
  4.549   1.5141
  4.545   1.5553
  4.541   1.5656
  4.537   1.5347
  4.533   1.5038
  4.529   1.4935
  4.525   1.4935
  4.521   1.4729
  4.517   1.4832
  4.513   1.5347
  4.509   1.5656
  4.505   1.5347
  4.502   1.4729
  4.498   1.4523
  4.494   1.4523
  4.490   1.4832
  4.486   1.5038
  4.482   1.4523
  4.478   1.4729
  4.474   1.5038
  4.470   1.4832
  4.467   1.4832
  4.463   1.4832
  4.459   1.4832
  4.455   1.4729
  4.451   1.4729
  4.447   1.4214
  4.444   1.4111
  4.440   1.4214
  4.436   1.4008
  4.432   1.4111
  4.428   1.4214
  4.425   1.4214
  4.421   1.4420
  4.417   1.4832
  4.413   1.4626
  4.410   1.4008
  4.406   1.3802
  4.402   1.4214
  4.398   1.4420
  4.395   1.4523
  4.391   1.4214
  4.387   1.4214
  4.384   1.4317
  4.380   1.4626
  4.376   1.4832
  4.372   1.4317
  4.369   1.3905
  4.365   1.4317
  4.361   1.4214
  4.358   1.4111
  4.354   1.4523
  4.350   1.4214
  4.347   1.4111
  4.343   1.4729
  4.340   1.4729
  4.336   1.4935
  4.332   1.4832
  4.329   1.4214
  4.325   1.4111
  4.321   1.4832
  4.318   1.4935
  4.314   1.5038
  4.311   1.5244
  4.307   1.5347
  4.304   1.5347
  4.300   1.5553
  4.296   1.5553
  4.293   1.5553
  4.289   1.5347
  4.286   1.5141
  4.282   1.5141
  4.279   1.5656
  4.275   1.5965
  4.272   1.6377
  4.268   1.6274
  4.265   1.5862
  4.261   1.5862
  4.258   1.5862
  4.254   1.5759
  4.251   1.5862
  4.247   1.5862
  4.244   1.5759
  4.240   1.5553
  4.237   1.6068
  4.233   1.6686
  4.230   1.6892
  4.226   1.6377
  4.223   1.5862
  4.219   1.5965
  4.216   1.6377
  4.213   1.6480
  4.209   1.6480
  4.206   1.6377
  4.202   1.5862
  4.199   1.5759
  4.196   1.5965
  4.192   1.5656
  4.189   1.5656
  4.185   1.6171
  4.182   1.6686
  4.179   1.6583
  4.175   1.6377
  4.172   1.6171
  4.169   1.6377
  4.165   1.6480
  4.162   1.6171
  4.159   1.6274
  4.155   1.6789
  4.152   1.6789
  4.149   1.6377
  4.145   1.6068
  4.142   1.6377
  4.139   1.6377
  4.135   1.6583
  4.132   1.6686
  4.129   1.6686
  4.126   1.6686
  4.122   1.6583
  4.119   1.6686
  4.116   1.7098
  4.112   1.6892
  4.109   1.6377
  4.106   1.6171
  4.103   1.6377
  4.099   1.6171
  4.096   1.5759
  4.093   1.6377
  4.090   1.6480
  4.086   1.5656
  4.083   1.5759
  4.080   1.6068
  4.077   1.6583
  4.074   1.6686
  4.070   1.6686
  4.067   1.6892
  4.064   1.6686
  4.061   1.6377
  4.058   1.6789
  4.055   1.7098
  4.051   1.6583
  4.048   1.6480
  4.045   1.6995
  4.042   1.7304
  4.039   1.7407
  4.036   1.6686
  4.032   1.6583
  4.029   1.6274
  4.026   1.6686
  4.023   1.7098
  4.020   1.7201
  4.017   1.7201
  4.014   1.7304
  4.011   1.7510
  4.008   1.7716
  4.004   1.7510
  4.001   1.7304
  3.998   1.7304
  3.995   1.7304
  3.992   1.6686
  3.989   1.6583
  3.986   1.6995
  3.983   1.7304
  3.980   1.6892
  3.977   1.6892
  3.974   1.7098
  3.971   1.6995
  3.968   1.6892
  3.965   1.7304
  3.962   1.7098
  3.959   1.6892
  3.956   1.6892
  3.953   1.7201
  3.950   1.7819
  3.947   1.7716
  3.944   1.6789
  3.941   1.6789
  3.938   1.6789
  3.935   1.7098
  3.932   1.7098
  3.929   1.6995
  3.926   1.7098
  3.923   1.7407
  3.920   1.7613
  3.917   1.7304
  3.914   1.6789
  3.911   1.7098
  3.908   1.7098
  3.905   1.7098
  3.902   1.6995
  3.899   1.7304
  3.896   1.7407
  3.893   1.7716
  3.890   1.7716
  3.887   1.7819
  3.884   1.7510
  3.882   1.7304
  3.879   1.7201
  3.876   1.7922
  3.873   1.8746
  3.870   1.8952
  3.867   1.8540
  3.864   1.8437
  3.861   1.7922
  3.858   1.8128
  3.856   1.8437
  3.853   1.8437
  3.850   1.8025
  3.847   1.8437
  3.844   1.8952
  3.841   1.9055
  3.838   1.8540
  3.836   1.8128
  3.833   1.7922
  3.830   1.8334
  3.827   1.8437
  3.824   1.8334
  3.822   1.8437
  3.819   1.8231
  3.816   1.7922
  3.813   1.8437
  3.810   1.8334
  3.807   1.8540
  3.805   1.8643
  3.802   1.9055
  3.799   1.9055
  3.796   1.9158
  3.794   1.8952
  3.791   1.9055
  3.788   1.8540
  3.785   1.8540
  3.782   1.8437
  3.780   1.8746
  3.777   1.8952
  3.774   1.8952
  3.771   1.8849
  3.769   1.9055
  3.766   1.8746
  3.763   1.8231
  3.761   1.8540
  3.758   1.8643
  3.755   1.8437
  3.752   1.8952
  3.750   1.9055
  3.747   1.8334
  3.744   1.8128
  3.742   1.9261
  3.739   1.9570
  3.736   1.9158
  3.733   1.8643
  3.731   1.8334
  3.728   1.8334
  3.725   1.8334
  3.723   1.8128
  3.720   1.8231
  3.717   1.8437
  3.715   1.8231
  3.712   1.8334
  3.709   1.8746
  3.707   1.8128
  3.704   1.8025
  3.702   1.7922
  3.699   1.7716
  3.696   1.7716
  3.694   1.8231
  3.691   1.8540
  3.688   1.8540
  3.686   1.8231
  3.683   1.8334
  3.680   1.7922
  3.678   1.8437
  3.675   1.9055
  3.673   1.8746
  3.670   1.7819
  3.667   1.7922
  3.665   1.8025
  3.662   1.8025
  3.660   1.7510
  3.657   1.7613
  3.655   1.7510
  3.652   1.7510
  3.649   1.7922
  3.647   1.8025
  3.644   1.7819
  3.642   1.8128
  3.639   1.8128
  3.637   1.7819
  3.634   1.7201
  3.632   1.6995
  3.629   1.7201
  3.626   1.7510
  3.624   1.7304
  3.621   1.7716
  3.619   1.7407
  3.616   1.7201
  3.614   1.7201
  3.611   1.6892
  3.609   1.6583
  3.606   1.7098
  3.604   1.6892
  3.601   1.6480
  3.599   1.6377
  3.596   1.6892
  3.594   1.6480
  3.591   1.6274
  3.589   1.6171
  3.586   1.6068
  3.584   1.5862
