Name: Oolitic Limestone 
Type:  Rocks
Class:  Sedimentary
Subclass: Limestone
Particle Size:  0 - 75 Micrometers
Sample No.:  limestone.4
Owner:  JHU
Wavelength Range:  All
Origin:  Sample No. 354,  The Hunt and Salisbury Collection at the U.S. 
Geological Survey, Denver, Co.
Description: Ooids (~ 1 mm diameter) with good laminar structure 
and occasionally with cores of recrystallized silica or carbonate are 
set in a micritic (microcrystalline calcite) groundmass. Some areas of 
this groundmass also contain recrystallized silica and carbonate. In 
addition there has been some compaction of the sample. While still 
soft, most ooids are slightly deformed with continuous boundaries.
Measurement:  Directional (10 Degree) Hemispherical Reflectance
First Column:  X
Second Column:  Y  
X Units:  Wavelength (micrometers)
Y Units:  Reflectance (percent)
First X Value: 14.9831
Last X Value:  0.4
Number of X Values:  2868
Additional Information:  None 

14.983	23.280
14.940	23.942
14.897	24.282
14.854	24.505
14.812	24.690
14.770	24.613
14.728	24.542
14.686	24.502
14.645	24.456
14.603	24.319
14.562	23.912
14.521	23.317
14.481	22.554
14.441	21.646
14.400	20.679
14.361	19.537
14.321	18.020
14.281	16.073
14.242	13.694
14.203	10.979
14.164	8.2248
14.126	5.7101
14.087	3.5998
14.049	2.1086
14.011	1.4602
13.973	1.9158
13.936	3.5520
13.899	6.1622
13.861	9.4047
13.824	12.797
13.788	15.868
13.751	18.379
13.715	20.336
13.679	21.916
13.643	23.235
13.607	24.283
13.571	25.047
13.536	25.572
13.500	25.925
13.465	26.129
13.430	26.233
13.396	26.294
13.361	26.301
13.327	26.217
13.293	26.040
13.259	25.774
13.225	25.422
13.191	25.009
13.158	24.571
13.124	24.138
13.091	23.709
13.058	23.279
13.026	22.870
12.993	22.499
12.960	22.185
12.928	21.943
12.896	21.771
12.864	21.658
12.832	21.581
12.800	21.535
12.769	21.522
12.737	21.580
12.706	21.730
12.675	21.976
12.644	22.282
12.614	22.580
12.583	22.843
12.552	23.101
12.522	23.369
12.492	23.688
12.462	24.080
12.432	24.527
12.402	24.953
12.373	25.303
12.343	25.579
12.314	25.843
12.285	26.121
12.256	26.429
12.227	26.761
12.198	27.079
12.169	27.326
12.141	27.511
12.113	27.633
12.084	27.698
12.056	27.687
12.028	27.596
12.000	27.423
11.973	27.167
11.945	26.829
11.918	26.178
11.890	24.254
11.863	20.779
11.836	17.186
11.809	14.712
11.782	13.720
11.755	14.153
11.729	15.622
11.702	17.157
11.676	17.313
11.650	15.833
11.624	13.899
11.598	12.063
11.572	10.336
11.546	8.8103
11.520	7.6034
11.495	6.7907
11.469	6.4395
11.444	6.5311
11.419	6.8921
11.394	7.2719
11.369	7.7505
11.344	8.8898
11.319	10.900
11.294	13.393
11.270	15.953
11.245	18.225
11.221	19.853
11.197	20.614
11.173	20.754
11.149	20.882
11.125	21.182
11.101	21.414
11.077	21.513
11.054	21.523
11.030	21.506
11.007	21.492
10.983	21.487
10.960	21.494
10.937	21.517
10.914	21.504
10.891	21.427
10.868	21.280
10.846	21.063
10.823	20.766
10.800	20.412
10.778	20.014
10.755	19.605
10.733	19.219
10.711	18.903
10.689	18.685
10.667	18.577
10.645	18.560
10.623	18.576
10.602	18.577
10.580	18.572
10.558	18.584
10.537	18.633
10.516	18.740
10.494	18.919
10.473	19.145
10.452	19.337
10.431	19.443
10.410	19.454
10.389	19.370
10.368	19.219
10.348	19.021
10.327	18.783
10.306	18.495
10.286	18.136
10.266	17.715
10.245	17.276
10.225	16.889
10.205	16.601
10.185	16.405
10.165	16.251
10.145	16.074
10.125	15.844
10.106	15.568
10.086	15.274
10.066	15.001
10.047	14.769
10.027	14.581
10.008	14.422
9.9887	14.277
9.9695	14.141
9.9504	14.004
9.9313	13.853
9.9123	13.702
9.8934	13.582
9.8746	13.519
9.8558	13.517
9.8371	13.571
9.8185	13.657
9.7999	13.744
9.7814	13.808
9.7630	13.872
9.7447	13.994
9.7264	14.200
9.7082	14.480
9.6900	14.828
9.6719	15.197
9.6539	15.518
9.6360	15.770
9.6181	15.961
9.6003	16.136
9.5825	16.330
9.5649	16.563
9.5472	16.832
9.5297	17.101
9.5122	17.336
9.4948	17.535
9.4774	17.690
9.4601	17.812
9.4429	17.906
9.4257	17.941
9.4086	17.916
9.3916	17.882
9.3746	17.897
9.3577	17.999
9.3408	18.198
9.3240	18.510
9.3073	18.846
9.2906	18.966
9.2740	18.773
9.2574	18.383
9.2409	17.900
9.2245	17.543
9.2081	17.545
9.1918	17.965
9.1755	18.654
9.1593	19.334
9.1431	19.866
9.1270	20.221
9.1110	20.342
9.0950	20.355
9.0791	20.392
9.0632	20.439
9.0474	20.463
9.0316	20.471
9.0159	20.486
9.0003	20.505
8.9847	20.517
8.9691	20.539
8.9536	20.590
8.9382	20.646
8.9228	20.688
8.9075	20.724
8.8922	20.751
8.8770	20.756
8.8618	20.739
8.8467	20.699
8.8316	20.620
8.8166	20.484
8.8016	20.279
8.7867	20.002
8.7718	19.643
8.7570	19.205
8.7422	18.702
8.7275	18.158
8.7129	17.579
8.6982	16.975
8.6837	16.340
8.6692	15.647
8.6547	14.873
8.6403	14.075
8.6259	13.340
8.6116	12.750
8.5973	12.361
8.5830	12.185
8.5688	12.179
8.5547	12.241
8.5406	12.263
8.5266	12.212
8.5126	12.109
8.4986	11.998
8.4847	11.935
8.4708	11.958
8.4570	12.059
8.4432	12.224
8.4295	12.429
8.4158	12.648
8.4022	12.892
8.3886	13.182
8.3750	13.512
8.3615	13.843
8.3481	14.141
8.3347	14.396
8.3213	14.598
8.3079	14.752
8.2946	14.888
8.2814	15.028
8.2682	15.172
8.2550	15.304
8.2419	15.418
8.2288	15.505
8.2158	15.542
8.2028	15.517
8.1898	15.433
8.1769	15.306
8.1640	15.167
8.1512	15.019
8.1384	14.864
8.1256	14.704
8.1129	14.517
8.1002	14.301
8.0876	14.080
8.0750	13.898
8.0624	13.804
8.0499	13.807
8.0374	13.881
8.0250	13.993
8.0126	14.097
8.0002	14.157
7.9879	14.141
7.9756	14.050
7.9634	13.889
7.9512	13.661
7.9390	13.387
7.9268	13.110
7.9147	12.880
7.9027	12.719
7.8906	12.634
7.8786	12.618
7.8667	12.616
7.8548	12.579
7.8429	12.486
7.8310	12.335
7.8192	12.143
7.8075	11.960
7.7957	11.816
7.7840	11.715
7.7723	11.639
7.7607	11.562
7.7491	11.462
7.7375	11.316
7.7260	11.123
7.7145	10.906
7.7031	10.654
7.6916	10.369
7.6802	10.068
7.6689	9.7608
7.6575	9.4549
7.6462	9.1572
7.6350	8.8884
7.6238	8.6637
7.6126	8.4690
7.6014	8.3113
7.5903	8.1941
7.5792	8.1081
7.5681	8.0470
7.5571	8.0008
7.5461	7.9684
7.5351	7.9392
7.5242	7.8914
7.5133	7.8287
7.5024	7.7479
7.4916	7.6494
7.4807	7.5468
7.4700	7.4410
7.4592	7.3347
7.4485	7.2286
7.4378	7.1270
7.4272	7.0363
7.4165	6.9489
7.4059	6.8643
7.3954	6.7807
7.3848	6.6886
7.3743	6.5868
7.3639	6.4712
7.3534	6.3438
7.3430	6.2077
7.3326	6.0646
7.3223	5.9287
7.3119	5.8010
7.3016	5.6855
7.2914	5.5884
7.2811	5.5126
7.2709	5.4593
7.2607	5.4273
7.2506	5.4167
7.2404	5.4262
7.2303	5.4430
7.2203	5.4704
7.2102	5.5126
7.2002	5.5720
7.1902	5.6556
7.1803	5.7672
7.1703	5.8920
7.1604	6.0113
7.1506	6.1364
7.1407	6.3107
7.1309	6.5442
7.1211	6.8324
7.1113	7.1589
7.1016	7.4753
7.0919	7.7304
7.0822	7.8961
7.0725	7.9897
7.0629	8.0389
7.0533	8.0572
7.0437	8.0574
7.0341	8.0484
7.0246	8.0295
7.0151	8.0096
7.0056	8.0006
6.9962	8.0020
6.9867	8.0020
6.9773	8.0013
6.9679	7.9963
6.9586	7.9975
6.9493	8.0053
6.9400	8.0226
6.9307	8.0584
6.9214	8.1124
6.9122	8.1889
6.9030	8.2867
6.8938	8.3973
6.8847	8.5126
6.8755	8.6123
6.8664	8.6937
6.8573	8.7619
6.8483	8.8209
6.8393	8.8844
6.8302	8.9538
6.8213	9.0272
6.8123	9.1124
6.8034	9.1922
6.7944	9.2671
6.7855	9.3514
6.7767	9.4440
6.7678	9.5432
6.7590	9.6394
6.7502	9.7329
6.7414	9.8354
6.7327	9.9399
6.7239	10.051
6.7152	10.178
6.7065	10.317
6.6979	10.462
6.6892	10.600
6.6806	10.731
6.6720	10.863
6.6634	11.002
6.6549	11.146
6.6464	11.299
6.6378	11.477
6.6294	11.681
6.6209	11.905
6.6124	12.149
6.6040	12.408
6.5956	12.683
6.5872	12.956
6.5789	13.222
6.5705	13.488
6.5622	13.740
6.5539	13.979
6.5456	14.204
6.5374	14.423
6.5292	14.635
6.5209	14.837
6.5128	15.033
6.5046	15.207
6.4964	15.365
6.4883	15.513
6.4802	15.634
6.4721	15.691
6.4640	15.615
6.4560	15.356
6.4480	14.871
6.4399	14.153
6.4320	13.289
6.4240	12.362
6.4160	11.442
6.4081	10.587
6.4002	9.8129
6.3923	9.1127
6.3844	8.4624
6.3766	7.8474
6.3687	7.2650
6.3609	6.6863
6.3531	6.0840
6.3454	5.4868
6.3376	4.9312
6.3299	4.4348
6.3221	4.0100
6.3144	3.6725
6.3068	3.4395
6.2991	3.2934
6.2914	3.1956
6.2838	3.1416
6.2762	3.1241
6.2686	3.1047
6.2611	3.0571
6.2535	2.9851
6.2460	2.9166
6.2385	2.8484
6.2310	2.7667
6.2235	2.6935
6.2160	2.6322
6.2086	2.5815
6.2011	2.5484
6.1937	2.5292
6.1863	2.5252
6.1790	2.5285
6.1716	2.5290
6.1643	2.5422
6.1570	2.5578
6.1496	2.5822
6.1424	2.6275
6.1351	2.6831
6.1278	2.7437
6.1206	2.8117
6.1134	2.8754
6.1062	2.9377
6.0990	2.9983
6.0918	3.0597
6.0847	3.1359
6.0776	3.2254
6.0704	3.3206
6.0633	3.4308
6.0563	3.5515
6.0492	3.6863
6.0421	3.8419
6.0351	4.0069
6.0281	4.1770
6.0211	4.3522
6.0141	4.5237
6.0071	4.6930
6.0002	4.8580
5.9932	5.0105
5.9863	5.1526
5.9794	5.2829
5.9725	5.4027
5.9657	5.5296
5.9588	5.6658
5.9520	5.8098
5.9451	5.9763
5.9383	6.1537
5.9315	6.3289
5.9247	6.5025
5.9180	6.6725
5.9112	6.8381
5.9045	6.9951
5.8978	7.1383
5.8911	7.2726
5.8844	7.3879
5.8777	7.4744
5.8711	7.5300
5.8644	7.5632
5.8578	7.5734
5.8512	7.5674
5.8446	7.5480
5.8380	7.5201
5.8314	7.4836
5.8249	7.4455
5.8184	7.4090
5.8118	7.3811
5.8053	7.3529
5.7988	7.3205
5.7923	7.2823
5.7859	7.2369
5.7794	7.1821
5.7730	7.1345
5.7666	7.1158
5.7602	7.1383
5.7538	7.2106
5.7474	7.3337
5.7410	7.5073
5.7347	7.7145
5.7283	7.9352
5.7220	8.1633
5.7157	8.4001
5.7094	8.6379
5.7031	8.8673
5.6969	9.1027
5.6906	9.3717
5.6844	9.6777
5.6782	10.024
5.6719	10.432
5.6657	10.899
5.6596	11.364
5.6534	11.753
5.6472	12.018
5.6411	12.115
5.6349	11.982
5.6288	11.576
5.6227	10.886
5.6166	9.9133
5.6106	8.6677
5.6045	7.1999
5.5984	5.6395
5.5924	4.1888
5.5864	3.0154
5.5804	2.1830
5.5744	1.6688
5.5684	1.4327
5.5624	1.4621
5.5564	1.8090
5.5505	2.5962
5.5445	3.9219
5.5386	5.7466
5.5327	7.8838
5.5268	10.080
5.5209	12.125
5.5151	13.915
5.5092	15.448
5.5033	16.794
5.4975	18.019
5.4917	19.167
5.4859	20.247
5.4801	21.270
5.4743	22.255
5.4685	23.210
5.4628	24.130
5.4570	25.025
5.4513	25.906
5.4455	26.776
5.4398	27.624
5.4341	28.460
5.4284	29.292
5.4228	30.102
5.4171	30.865
5.4114	31.576
5.4058	32.238
5.4002	32.855
5.3945	33.425
5.3889	33.966
5.3833	34.498
5.3778	35.013
5.3722	35.501
5.3666	35.970
5.3611	36.426
5.3555	36.877
5.3500	37.329
5.3445	37.792
5.3390	38.277
5.3335	38.778
5.3280	39.278
5.3225	39.775
5.3171	40.257
5.3116	40.717
5.3062	41.160
5.3008	41.581
5.2954	41.989
5.2900	42.378
5.2846	42.746
5.2792	43.115
5.2738	43.494
5.2684	43.871
5.2631	44.255
5.2578	44.648
5.2524	45.044
5.2471	45.428
5.2418	45.802
5.2365	46.172
5.2312	46.530
5.2260	46.863
5.2207	47.178
5.2154	47.479
5.2102	47.760
5.2050	48.016
5.1998	48.255
5.1945	48.476
5.1893	48.668
5.1842	48.825
5.1790	48.959
5.1738	49.084
5.1686	49.206
5.1635	49.334
5.1584	49.473
5.1532	49.613
5.1481	49.736
5.1430	49.843
5.1379	49.939
5.1328	50.023
5.1277	50.014
5.1227	49.682
5.1176	48.683
5.1126	46.999
5.1075	45.263
5.1025	44.192
5.0975	44.160
5.0925	45.209
5.0875	47.037
5.0825	49.017
5.0775	50.457
5.0726	51.120
5.0676	51.345
5.0627	51.435
5.0577	51.488
5.0528	51.528
5.0479	51.556
5.0430	51.568
5.0380	51.563
5.0332	51.553
5.0283	51.537
5.0234	51.518
5.0185	51.507
5.0137	51.506
5.0088	51.515
5.0040	51.528
4.9992	51.539
4.9944	51.559
4.9896	51.592
4.9848	51.638
4.9800	51.702
4.9752	51.775
4.9704	51.855
4.9657	51.937
4.9609	52.012
4.9562	52.076
4.9514	52.132
4.9467	52.180
4.9420	52.220
4.9373	52.249
4.9326	52.287
4.9279	52.339
4.9232	52.406
4.9186	52.488
4.9139	52.594
4.9092	52.721
4.9046	52.850
4.9000	52.971
4.8953	53.086
4.8907	53.188
4.8861	53.282
4.8815	53.376
4.8769	53.476
4.8723	53.575
4.8678	53.668
4.8632	53.758
4.8586	53.839
4.8541	53.910
4.8495	53.973
4.8450	54.028
4.8405	54.084
4.8360	54.137
4.8315	54.189
4.8270	54.234
4.8225	54.262
4.8180	54.274
4.8135	54.271
4.8090	54.254
4.8046	54.242
4.8001	54.233
4.7957	54.220
4.7913	54.189
4.7868	54.134
4.7824	54.051
4.7780	53.929
4.7736	53.751
4.7692	53.523
4.7648	53.239
4.7605	52.904
4.7561	52.524
4.7517	52.096
4.7474	51.612
4.7431	51.064
4.7387	50.424
4.7344	49.657
4.7301	48.702
4.7258	47.516
4.7215	46.079
4.7172	44.417
4.7129	42.599
4.7086	40.755
4.7043	39.007
4.7000	37.446
4.6958	36.116
4.6915	35.037
4.6873	34.197
4.6831	33.575
4.6788	33.151
4.6746	32.910
4.6704	32.839
4.6662	32.947
4.6620	33.266
4.6578	33.840
4.6536	34.678
4.6495	35.769
4.6453	37.077
4.6411	38.503
4.6370	39.916
4.6328	41.231
4.6287	42.417
4.6246	43.467
4.6205	44.361
4.6163	45.101
4.6122	45.701
4.6081	46.159
4.6040	46.489
4.6000	46.734
4.5959	46.939
4.5918	47.135
4.5877	47.315
4.5837	47.460
4.5796	47.557
4.5756	47.610
4.5716	47.649
4.5675	47.699
4.5635	47.752
4.5595	47.802
4.5555	47.846
4.5515	47.876
4.5475	47.889
4.5435	47.886
4.5395	47.883
4.5356	47.891
4.5316	47.900
4.5276	47.915
4.5237	47.940
4.5197	47.974
4.5158	48.017
4.5119	48.071
4.5080	48.151
4.5040	48.267
4.5001	48.438
4.4962	48.671
4.4923	48.963
4.4884	49.303
4.4846	49.673
4.4807	50.064
4.4768	50.463
4.4730	50.845
4.4691	51.196
4.4652	51.516
4.4614	51.806
4.4576	52.069
4.4537	52.321
4.4499	52.591
4.4461	52.881
4.4423	53.179
4.4385	53.468
4.4347	53.737
4.4309	53.974
4.4271	54.168
4.4233	54.329
4.4196	54.457
4.4158	54.553
4.4120	54.622
4.4083	54.656
4.4045	54.663
4.4008	54.662
4.3971	54.668
4.3934	54.690
4.3896	54.726
4.3859	54.773
4.3822	54.802
4.3785	54.779
4.3748	54.690
4.3711	54.525
4.3674	54.282
4.3638	53.960
4.3601	53.581
4.3564	53.172
4.3528	52.759
4.3491	52.367
4.3455	52.003
4.3418	51.659
4.3382	51.316
4.3346	50.950
4.3310	50.539
4.3273	50.069
4.3237	49.538
4.3201	48.947
4.3165	48.297
4.3129	47.595
4.3094	46.853
4.3058	46.068
4.3022	45.227
4.2986	44.304
4.2951	43.299
4.2915	42.218
4.2880	41.077
4.2844	39.902
4.2809	38.742
4.2774	37.673
4.2738	36.802
4.2703	36.240
4.2668	36.064
4.2633	36.285
4.2598	36.861
4.2563	37.689
4.2528	38.647
4.2493	39.638
4.2458	40.618
4.2424	41.567
4.2389	42.476
4.2354	43.351
4.2320	44.214
4.2285	45.069
4.2251	45.906
4.2216	46.709
4.2182	47.457
4.2148	48.127
4.2113	48.699
4.2079	49.157
4.2045	49.500
4.2011	49.739
4.1977	49.881
4.1943	49.946
4.1909	49.956
4.1875	49.927
4.1841	49.863
4.1808	49.772
4.1774	49.659
4.1740	49.521
4.1707	49.352
4.1673	49.167
4.1640	48.963
4.1606	48.739
4.1573	48.489
4.1540	48.213
4.1506	47.909
4.1473	47.565
4.1440	47.181
4.1407	46.771
4.1374	46.336
4.1341	45.883
4.1308	45.417
4.1275	44.932
4.1242	44.439
4.1209	43.939
4.1177	43.432
4.1144	42.924
4.1111	42.414
4.1079	41.894
4.1046	41.362
4.1014	40.816
4.0981	40.262
4.0949	39.693
4.0917	39.098
4.0884	38.479
4.0852	37.823
4.0820	37.110
4.0788	36.342
4.0756	35.529
4.0724	34.686
4.0692	33.830
4.0660	32.961
4.0628	32.067
4.0596	31.114
4.0565	30.044
4.0533	28.793
4.0501	27.331
4.0470	25.663
4.0438	23.855
4.0406	22.000
4.0375	20.205
4.0344	18.551
4.0312	17.061
4.0281	15.736
4.0250	14.553
4.0218	13.455
4.0187	12.396
4.0156	11.343
4.0125	10.287
4.0094	9.2313
4.0063	8.2014
4.0032	7.2586
4.0001	6.4400
3.9970	5.7546
3.9940	5.1995
3.9909	4.7595
3.9878	4.4322
3.9847	4.2189
3.9817	4.0986
3.9786	4.0538
3.9756	4.0638
3.9725	4.1189
3.9695	4.2066
3.9665	4.3243
3.9634	4.4993
3.9604	4.7583
3.9574	5.1041
3.9544	5.5420
3.9513	6.0921
3.9483	6.7798
3.9453	7.5802
3.9423	8.4112
3.9393	9.1716
3.9363	9.7871
3.9333	10.232
3.9304	10.532
3.9274	10.743
3.9244	10.943
3.9214	11.171
3.9185	11.406
3.9155	11.612
3.9126	11.774
3.9096	11.904
3.9067	12.019
3.9037	12.119
3.9008	12.218
3.8979	12.319
3.8949	12.408
3.8920	12.489
3.8891	12.574
3.8862	12.663
3.8833	12.742
3.8804	12.807
3.8775	12.873
3.8746	12.933
3.8717	12.976
3.8688	13.025
3.8659	13.099
3.8630	13.191
3.8601	13.284
3.8573	13.387
3.8544	13.513
3.8515	13.654
3.8487	13.818
3.8458	14.038
3.8430	14.344
3.8401	14.757
3.8373	15.304
3.8344	15.997
3.8316	16.827
3.8288	17.749
3.8259	18.729
3.8231	19.756
3.8203	20.820
3.8175	21.924
3.8147	23.102
3.8119	24.389
3.8091	25.818
3.8063	27.420
3.8035	29.212
3.8007	31.203
3.7979	33.347
3.7951	35.540
3.7924	37.653
3.7896	39.562
3.7868	41.185
3.7841	42.500
3.7813	43.534
3.7785	44.365
3.7758	45.063
3.7730	45.670
3.7703	46.205
3.7676	46.672
3.7648	47.075
3.7621	47.408
3.7594	47.681
3.7566	47.910
3.7539	48.102
3.7512	48.286
3.7485	48.486
3.7458	48.714
3.7431	48.969
3.7404	49.246
3.7377	49.534
3.7350	49.812
3.7323	50.057
3.7296	50.266
3.7269	50.454
3.7242	50.618
3.7216	50.755
3.7189	50.875
3.7162	50.982
3.7136	51.076
3.7109	51.157
3.7083	51.227
3.7056	51.292
3.7030	51.348
3.7003	51.396
3.6977	51.432
3.6950	51.454
3.6924	51.471
3.6898	51.483
3.6872	51.487
3.6845	51.484
3.6819	51.476
3.6793	51.456
3.6767	51.421
3.6741	51.371
3.6715	51.314
3.6689	51.253
3.6663	51.185
3.6637	51.113
3.6611	51.036
3.6585	50.946
3.6560	50.858
3.6534	50.762
3.6508	50.653
3.6482	50.542
3.6457	50.429
3.6431	50.314
3.6406	50.191
3.6380	50.058
3.6355	49.928
3.6329	49.783
3.6304	49.622
3.6278	49.460
3.6253	49.297
3.6227	49.135
3.6202	48.960
3.6177	48.763
3.6152	48.548
3.6127	48.306
3.6101	48.035
3.6076	47.740
3.6051	47.418
3.6026	47.063
3.6001	46.664
3.5976	46.223
3.5951	45.726
3.5926	45.158
3.5901	44.516
3.5876	43.796
3.5852	42.975
3.5827	42.035
3.5802	41.026
3.5777	40.062
3.5753	39.238
3.5728	38.631
3.5704	38.281
3.5679	38.152
3.5654	38.126
3.5630	38.066
3.5605	37.893
3.5581	37.582
3.5557	37.125
3.5532	36.549
3.5508	35.881
3.5484	35.120
3.5459	34.253
3.5435	33.266
3.5411	32.151
3.5387	30.896
3.5363	29.493
3.5338	27.939
3.5314	26.229
3.5290	24.377
3.5266	22.438
3.5242	20.505
3.5218	18.685
3.5195	17.078
3.5171	15.737
3.5147	14.665
3.5123	13.840
3.5099	13.200
3.5075	12.667
3.5052	12.198
3.5028	11.764
3.5004	11.338
3.4981	10.907
3.4957	10.482
3.4934	10.080
3.4910	9.6933
3.4887	9.3232
3.4863	8.9808
3.4840	8.6750
3.4816	8.4224
3.4793	8.2762
3.4770	8.3096
3.4746	8.5791
3.4723	9.1174
3.4700	9.9136
3.4677	10.873
3.4653	11.878
3.4630	12.818
3.4607	13.611
3.4584	14.223
3.4561	14.665
3.4538	14.969
3.4515	15.181
3.4492	15.334
3.4469	15.453
3.4446	15.552
3.4423	15.634
3.4400	15.708
3.4378	15.770
3.4355	15.815
3.4332	15.858
3.4309	15.895
3.4287	15.902
3.4264	15.890
3.4241	15.867
3.4219	15.844
3.4196	15.822
3.4174	15.800
3.4151	15.776
3.4129	15.734
3.4106	15.656
3.4084	15.569
3.4061	15.481
3.4039	15.386
3.4017	15.293
3.3994	15.200
3.3972	15.111
3.3950	15.017
3.3928	14.917
3.3906	14.810
3.3883	14.689
3.3861	14.559
3.3839	14.432
3.3817	14.316
3.3795	14.224
3.3773	14.149
3.3751	14.085
3.3729	14.024
3.3707	13.938
3.3685	13.808
3.3663	13.605
3.3641	13.309
3.3620	12.939
3.3598	12.522
3.3576	12.089
3.3554	11.691
3.3533	11.394
3.3511	11.307
3.3489	11.585
3.3468	12.382
3.3446	13.814
3.3425	15.854
3.3403	18.331
3.3382	21.007
3.3360	23.621
3.3339	25.969
3.3317	27.968
3.3296	29.623
3.3274	30.990
3.3253	32.129
3.3232	33.097
3.3210	33.949
3.3189	34.703
3.3168	35.372
3.3147	35.975
3.3126	36.519
3.3104	37.007
3.3083	37.463
3.3062	37.904
3.3041	38.328
3.3020	38.718
3.2999	39.080
3.2978	39.417
3.2957	39.723
3.2936	39.993
3.2915	40.244
3.2894	40.489
3.2874	40.727
3.2853	40.959
3.2832	41.184
3.2811	41.407
3.2790	41.627
3.2770	41.823
3.2749	41.995
3.2728	42.158
3.2708	42.307
3.2687	42.447
3.2666	42.571
3.2646	42.679
3.2625	42.780
3.2605	42.884
3.2584	42.979
3.2564	43.065
3.2543	43.144
3.2523	43.222
3.2503	43.297
3.2482	43.352
3.2462	43.389
3.2442	43.427
3.2421	43.461
3.2401	43.494
3.2381	43.544
3.2361	43.612
3.2340	43.685
3.2320	43.748
3.2300	43.792
3.2280	43.827
3.2260	43.852
3.2240	43.863
3.2220	43.872
3.2200	43.875
3.2180	43.876
3.2160	43.878
