Name: Dolomitic Limestone 
Type:  Rocks
Class:  Sedimentary
Subclass: Limestone
Particle Size:  0-75 Micrometers
Sample No.:  limestone.2
Owner:  JHU
Wavelength Range:  All
Origin:  Sample No. 353,  The Hunt and Salisbury Collection at the U.S. 
Geological Survey, Denver, Co.
Description: This somewhat heterogeneous sample consists of bands 
of pure fine-grained to microcrystalline dolomite, alternating with 
bands of coarser dolomite crystals and subangular aligned quartz 
grains showing pressure solution texture. There is also a greenish-
brown material (clay?) scattered throughout the sample in small 
amounts.
Measurement:  Directional (10 Degree) Hemispherical Reflectance
First Column:  X
Second Column:  Y  
X Units:  Wavelength (micrometers)
Y Units:  Reflectance (percent)
First X Value:  14.0112
Last X Value:  0.4
Number of X Values:  2844
Additional Information:  None 

14.983	14.981
14.940	14.903
14.897	14.931
14.854	15.025
14.812	15.082
14.770	15.069
14.728	14.947
14.686	14.696
14.645	14.296
14.603	13.734
14.562	13.000
14.521	12.115
14.481	11.167
14.441	10.332
14.400	9.8094
14.361	9.7509
14.321	10.199
14.281	11.043
14.242	12.039
14.203	12.942
14.164	13.583
14.126	13.878
14.087	13.800
14.049	13.381
14.011	12.666
13.973	11.677
13.936	10.419
13.899	8.9355
13.861	7.3096
13.824	5.6642
13.788	4.1571
13.751	2.9749
13.715	2.2884
13.679	2.2228
13.643	2.8247
13.607	4.0334
13.571	5.6831
13.536	7.5660
13.500	9.4681
13.465	11.214
13.430	12.695
13.396	13.887
13.361	14.807
13.327	15.489
13.293	15.960
13.259	16.240
13.225	16.342
13.191	16.270
13.158	16.033
13.124	15.649
13.091	15.143
13.058	14.550
13.026	13.906
12.993	13.254
12.960	12.637
12.928	12.100
12.896	11.683
12.864	11.416
12.832	11.301
12.800	11.318
12.769	11.421
12.737	11.545
12.706	11.626
12.675	11.624
12.644	11.526
12.614	11.352
12.583	11.145
12.552	10.980
12.522	10.942
12.492	11.105
12.462	11.525
12.432	12.219
12.402	13.162
12.373	14.285
12.343	15.495
12.314	16.704
12.285	17.833
12.256	18.835
12.227	19.691
12.198	20.411
12.169	21.020
12.141	21.551
12.113	22.037
12.084	22.505
12.056	22.958
12.028	23.399
12.000	23.822
11.973	24.234
11.945	24.667
11.918	25.163
11.890	25.501
11.863	25.254
11.836	24.172
11.809	22.320
11.782	20.056
11.755	17.977
11.729	16.789
11.702	16.956
11.676	18.113
11.650	19.362
11.624	19.979
11.598	19.528
11.572	17.907
11.546	15.385
11.520	12.521
11.495	9.8757
11.469	7.7024
11.444	6.0769
11.419	5.0539
11.394	4.5646
11.369	4.4547
11.344	4.5689
11.319	4.8493
11.294	5.3719
11.270	6.3256
11.245	7.8902
11.221	10.108
11.197	12.818
11.173	15.667
11.149	18.211
11.125	20.089
11.101	21.162
11.077	21.541
11.054	21.480
11.030	21.257
11.007	21.082
10.983	21.044
10.960	21.126
10.937	21.269
10.914	21.420
10.891	21.555
10.868	21.663
10.846	21.741
10.823	21.795
10.800	21.836
10.778	21.876
10.756	21.917
10.733	21.949
10.711	21.964
10.689	21.952
10.667	21.906
10.645	21.832
10.623	21.737
10.602	21.630
10.580	21.515
10.558	21.395
10.537	21.265
10.516	21.112
10.494	20.922
10.473	20.687
10.452	20.398
10.431	20.055
10.410	19.667
10.389	19.251
10.368	18.823
10.348	18.400
10.327	17.997
10.306	17.626
10.286	17.298
10.266	17.009
10.245	16.757
10.225	16.532
10.205	16.318
10.185	16.100
10.165	15.873
10.145	15.632
10.125	15.383
10.106	15.137
10.086	14.912
10.066	14.719
10.047	14.560
10.027	14.438
10.008	14.349
9.9887	14.280
9.9695	14.217
9.9504	14.156
9.9313	14.092
9.9123	14.020
9.8934	13.933
9.8746	13.828
9.8558	13.706
9.8371	13.560
9.8185	13.389
9.7999	13.197
9.7814	12.996
9.7630	12.794
9.7447	12.600
9.7264	12.419
9.7082	12.253
9.6900	12.095
9.6719	11.947
9.6539	11.815
9.6360	11.709
9.6181	11.644
9.6003	11.629
9.5825	11.665
9.5649	11.739
9.5472	11.827
9.5297	11.913
9.5122	11.989
9.4948	12.061
9.4774	12.154
9.4601	12.303
9.4429	12.542
9.4257	12.894
9.4086	13.358
9.3916	13.912
9.3746	14.507
9.3577	15.080
9.3408	15.565
9.3240	15.917
9.3073	16.121
9.2906	16.184
9.2740	16.139
9.2574	16.027
9.2409	15.892
9.2245	15.769
9.2081	15.669
9.1918	15.574
9.1755	15.442
9.1593	15.234
9.1431	14.946
9.1270	14.615
9.1110	14.314
9.0950	14.133
9.0791	14.126
9.0632	14.276
9.0474	14.503
9.0316	14.722
9.0159	14.868
9.0003	14.914
8.9847	14.876
8.9691	14.793
8.9536	14.706
8.9382	14.627
8.9228	14.558
8.9075	14.504
8.8922	14.471
8.8770	14.469
8.8618	14.497
8.8467	14.551
8.8316	14.613
8.8166	14.660
8.8016	14.676
8.7867	14.658
8.7718	14.617
8.7570	14.580
8.7423	14.568
8.7275	14.588
8.7129	14.627
8.6982	14.649
8.6837	14.613
8.6692	14.504
8.6547	14.341
8.6403	14.171
8.6259	14.053
8.6116	14.040
8.5973	14.145
8.5830	14.341
8.5688	14.573
8.5547	14.791
8.5406	14.952
8.5266	15.030
8.5126	15.022
8.4986	14.945
8.4847	14.819
8.4708	14.669
8.4570	14.517
8.4432	14.390
8.4295	14.301
8.4158	14.263
8.4022	14.297
8.3886	14.428
8.3750	14.672
8.3615	15.035
8.3481	15.501
8.3347	16.032
8.3213	16.579
8.3079	17.097
8.2946	17.566
8.2814	17.985
8.2682	18.359
8.2550	18.692
8.2419	18.968
8.2288	19.152
8.2158	19.203
8.2028	19.090
8.1898	18.811
8.1769	18.405
8.1640	17.943
8.1512	17.506
8.1384	17.168
8.1256	16.973
8.1129	16.929
8.1002	17.005
8.0876	17.151
8.0750	17.321
8.0624	17.481
8.0499	17.617
8.0374	17.730
8.0250	17.830
8.0126	17.924
8.0002	18.016
7.9879	18.099
7.9756	18.167
7.9634	18.212
7.9512	18.235
7.9390	18.240
7.9268	18.240
7.9147	18.250
7.9027	18.283
7.8906	18.335
7.8786	18.391
7.8667	18.426
7.8548	18.410
7.8429	18.322
7.8310	18.151
7.8192	17.903
7.8075	17.596
7.7957	17.253
7.7840	16.901
7.7723	16.563
7.7607	16.256
7.7491	15.985
7.7375	15.747
7.7260	15.538
7.7145	15.358
7.7031	15.215
7.6916	15.121
7.6802	15.087
7.6689	15.115
7.6575	15.188
7.6462	15.280
7.6350	15.361
7.6238	15.406
7.6126	15.398
7.6014	15.335
7.5903	15.221
7.5792	15.059
7.5681	14.851
7.5571	14.592
7.5461	14.281
7.5351	13.922
7.5242	13.529
7.5133	13.129
7.5024	12.751
7.4916	12.419
7.4807	12.147
7.4700	11.932
7.4592	11.768
7.4485	11.643
7.4378	11.543
7.4272	11.449
7.4165	11.342
7.4059	11.204
7.3954	11.015
7.3848	10.769
7.3743	10.472
7.3639	10.142
7.3534	9.7897
7.3430	9.4324
7.3326	9.0824
7.3223	8.7456
7.3119	8.4233
7.3016	8.1152
7.2914	7.8175
7.2811	7.5260
7.2709	7.2357
7.2607	6.9489
7.2506	6.6720
7.2404	6.4151
7.2303	6.1859
7.2203	5.9867
7.2102	5.8084
7.2002	5.6447
7.1902	5.4865
7.1803	5.3250
7.1703	5.1569
7.1604	4.9890
7.1506	4.8318
7.1407	4.6899
7.1309	4.5665
7.1211	4.4720
7.1113	4.4126
7.1016	4.3913
7.0919	4.4204
7.0822	4.5187
7.0725	4.6946
7.0629	4.9381
7.0533	5.2237
7.0437	5.5166
7.0341	5.7738
7.0246	5.9564
7.0151	6.0535
7.0056	6.0743
6.9962	6.0376
6.9867	5.9678
6.9773	5.8868
6.9679	5.8086
6.9586	5.7411
6.9493	5.6852
6.9400	5.6417
6.9307	5.6092
6.9214	5.5848
6.9122	5.5652
6.9030	5.5460
6.8938	5.5256
6.8847	5.5100
6.8755	5.5031
6.8664	5.5069
6.8573	5.5256
6.8483	5.5564
6.8393	5.5903
6.8302	5.6173
6.8213	5.6329
6.8123	5.6381
6.8034	5.6343
6.7944	5.6286
6.7855	5.6308
6.7767	5.6445
6.7678	5.6696
6.7590	5.6997
6.7502	5.7305
6.7414	5.7591
6.7327	5.7835
6.7239	5.8072
6.7152	5.8340
6.7065	5.8669
6.6979	5.9093
6.6892	5.9588
6.6806	6.0137
6.6720	6.0741
6.6634	6.1406
6.6549	6.2143
6.6464	6.2953
6.6378	6.3883
6.6294	6.4954
6.6209	6.6114
6.6124	6.7282
6.6040	6.8414
6.5956	6.9503
6.5872	7.0557
6.5789	7.1632
6.5705	7.2811
6.5622	7.4140
6.5539	7.5625
6.5457	7.7221
6.5374	7.8898
6.5292	8.0641
6.5209	8.2431
6.5128	8.4283
6.5046	8.6220
6.4964	8.8294
6.4883	9.0561
6.4802	9.3005
6.4721	9.5567
6.4640	9.8160
6.4560	10.066
6.4480	10.300
6.4399	10.522
6.4320	10.742
6.4240	10.979
6.4160	11.246
6.4081	11.565
6.4002	11.947
6.3923	12.392
6.3844	12.881
6.3766	13.372
6.3687	13.804
6.3609	14.103
6.3531	14.195
6.3454	14.044
6.3376	13.655
6.3299	13.066
6.3221	12.335
6.3144	11.527
6.3068	10.693
6.2991	9.8714
6.2914	9.0888
6.2838	8.3684
6.2762	7.7323
6.2686	7.1909
6.2611	6.7429
6.2535	6.3758
6.2460	6.0739
6.2385	5.8285
6.2310	5.6388
6.2235	5.5064
6.2160	5.4328
6.2086	5.4148
6.2011	5.4413
6.1937	5.4977
6.1863	5.5701
6.1790	5.6511
6.1716	5.7357
6.1643	5.8179
6.1570	5.8932
6.1496	5.9517
6.1424	5.9829
6.1351	5.9829
6.1278	5.9533
6.1206	5.9014
6.1134	5.8427
6.1062	5.7973
6.0990	5.7859
6.0918	5.8141
6.0847	5.8771
6.0776	5.9685
6.0704	6.0781
6.0633	6.1915
6.0563	6.2981
6.0492	6.3978
6.0421	6.5004
6.0351	6.6038
6.0281	6.7054
6.0211	6.8106
6.0141	6.9209
6.0071	7.0294
6.0002	7.1270
5.9932	7.2103
5.9863	7.2849
5.9794	7.3474
5.9725	7.3974
5.9657	7.4467
5.9588	7.5047
5.9520	7.5788
5.9451	7.6792
5.9383	7.8144
5.9315	7.9918
5.9247	8.2054
5.9180	8.4366
5.9112	8.6715
5.9045	8.8984
5.8978	9.1131
5.8911	9.3225
5.8844	9.5344
5.8777	9.7599
5.8711	10.004
5.8644	10.258
5.8578	10.513
5.8512	10.758
5.8446	10.987
5.8380	11.191
5.8314	11.371
5.8249	11.529
5.8184	11.678
5.8118	11.824
5.8053	11.971
5.7988	12.122
5.7923	12.279
5.7859	12.434
5.7794	12.581
5.7730	12.716
5.7666	12.841
5.7602	12.961
5.7538	13.082
5.7474	13.210
5.7410	13.359
5.7347	13.536
5.7283	13.735
5.7220	13.944
5.7157	14.146
5.7094	14.322
5.7031	14.451
5.6969	14.523
5.6906	14.542
5.6844	14.516
5.6782	14.442
5.6719	14.319
5.6657	14.146
5.6596	13.923
5.6534	13.657
5.6472	13.363
5.6411	13.065
5.6349	12.781
5.6288	12.514
5.6227	12.261
5.6166	12.016
5.6106	11.768
5.6045	11.504
5.5984	11.216
5.5924	10.899
5.5864	10.553
5.5804	10.174
5.5744	9.7592
5.5684	9.3066
5.5624	8.8119
5.5564	8.2713
5.5505	7.6880
5.5445	7.0761
5.5386	6.4653
5.5327	5.8929
5.5268	5.3975
5.5209	5.0094
5.5151	4.7387
5.5092	4.5741
5.5033	4.4971
5.4975	4.5002
5.4917	4.6039
5.4859	4.8597
5.4801	5.3409
5.4743	6.1203
5.4685	7.2378
5.4628	8.6807
5.4570	10.378
5.4513	12.218
5.4455	14.076
5.4398	15.847
5.4341	17.453
5.4284	18.853
5.4228	20.029
5.4171	20.981
5.4114	21.704
5.4058	22.196
5.4002	22.475
5.3945	22.573
5.3889	22.541
5.3833	22.430
5.3778	22.298
5.3722	22.189
5.3666	22.134
5.3611	22.148
5.3555	22.236
5.3500	22.396
5.3445	22.617
5.3390	22.878
5.3335	23.161
5.3280	23.451
5.3225	23.743
5.3171	24.040
5.3116	24.349
5.3062	24.688
5.3008	25.069
5.2954	25.505
5.2900	26.008
5.2846	26.581
5.2792	27.222
5.2738	27.926
5.2684	28.688
5.2631	29.504
5.2578	30.375
5.2524	31.303
5.2471	32.291
5.2418	33.323
5.2365	34.380
5.2312	35.429
5.2260	36.438
5.2207	37.369
5.2154	38.194
5.2102	38.898
5.2050	39.472
5.1998	39.920
5.1945	40.258
5.1893	40.513
5.1842	40.710
5.1790	40.872
5.1738	41.015
5.1686	41.147
5.1635	41.268
5.1584	41.371
5.1532	41.453
5.1481	41.521
5.1430	41.583
5.1379	41.652
5.1328	41.738
5.1277	41.843
5.1227	41.958
5.1176	42.061
5.1126	42.122
5.1075	42.120
5.1025	42.034
5.0975	41.841
5.0925	41.517
5.0875	41.045
5.0825	40.445
5.0775	39.777
5.0726	39.141
5.0676	38.667
5.0627	38.461
5.0577	38.563
5.0528	38.922
5.0479	39.426
5.0430	39.951
5.0380	40.398
5.0332	40.718
5.0283	40.914
5.0234	41.031
5.0185	41.117
5.0137	41.209
5.0088	41.332
5.0040	41.501
4.9992	41.730
4.9944	42.030
4.9896	42.414
4.9848	42.898
4.9800	43.489
4.9752	44.178
4.9704	44.937
4.9657	45.720
4.9609	46.471
4.9562	47.141
4.9514	47.704
4.9467	48.160
4.9420	48.535
4.9373	48.871
4.9326	49.228
4.9279	49.662
4.9232	50.216
4.9186	50.913
4.9139	51.758
4.9092	52.730
4.9046	53.788
4.9000	54.881
4.8953	55.957
4.8907	56.975
4.8861	57.904
4.8815	58.728
4.8769	59.447
4.8723	60.069
4.8678	60.606
4.8632	61.074
4.8586	61.483
4.8541	61.841
4.8495	62.157
4.8450	62.435
4.8405	62.681
4.8360	62.899
4.8315	63.096
4.8270	63.276
4.8225	63.439
4.8180	63.589
4.8135	63.726
4.8090	63.851
4.8046	63.965
4.8001	64.070
4.7957	64.169
4.7913	64.263
4.7868	64.350
4.7824	64.431
4.7780	64.503
4.7736	64.564
4.7692	64.613
4.7648	64.648
4.7605	64.667
4.7561	64.671
4.7517	64.657
4.7474	64.620
4.7431	64.555
4.7387	64.458
4.7344	64.324
4.7301	64.143
4.7258	63.909
4.7215	63.619
4.7172	63.269
4.7129	62.854
4.7086	62.366
4.7043	61.800
4.7000	61.148
4.6958	60.403
4.6915	59.560
4.6873	58.616
4.6831	57.571
4.6788	56.435
4.6746	55.225
4.6704	53.977
4.6662	52.745
4.6620	51.593
4.6578	50.577
4.6536	49.736
4.6495	49.084
4.6453	48.612
4.6411	48.285
4.6370	48.063
4.6328	47.911
4.6287	47.803
4.6246	47.728
4.6205	47.700
4.6163	47.745
4.6122	47.899
4.6081	48.186
4.6040	48.617
4.6000	49.184
4.5959	49.861
4.5918	50.609
4.5877	51.389
4.5837	52.168
4.5796	52.920
4.5756	53.626
4.5716	54.278
4.5675	54.876
4.5635	55.426
4.5595	55.935
4.5555	56.405
4.5515	56.834
4.5475	57.215
4.5435	57.546
4.5395	57.825
4.5356	58.055
4.5316	58.251
4.5276	58.432
4.5237	58.621
4.5197	58.844
4.5158	59.125
4.5119	59.473
4.5080	59.881
4.5040	60.317
4.5001	60.740
4.4962	61.103
4.4923	61.367
4.4884	61.507
4.4846	61.512
4.4807	61.382
4.4768	61.135
4.4730	60.791
4.4691	60.379
4.4652	59.928
4.4614	59.467
4.4576	59.023
4.4537	58.622
4.4499	58.286
4.4461	58.037
4.4423	57.893
4.4385	57.868
4.4347	57.965
4.4309	58.180
4.4271	58.505
4.4233	58.924
4.4196	59.420
4.4158	59.968
4.4120	60.550
4.4083	61.148
4.4045	61.747
4.4008	62.334
4.3971	62.908
4.3934	63.467
4.3896	64.012
4.3859	64.540
4.3822	65.051
4.3785	65.547
4.3748	66.028
4.3711	66.493
4.3674	66.929
4.3638	67.306
4.3601	67.573
4.3564	67.667
4.3528	67.541
4.3491	67.188
4.3455	66.646
4.3418	65.995
4.3382	65.335
4.3346	64.742
4.3310	64.254
4.3273	63.863
4.3237	63.542
4.3201	63.258
4.3165	62.995
4.3129	62.759
4.3094	62.567
4.3058	62.425
4.3022	62.323
4.2986	62.238
4.2951	62.149
4.2915	62.047
4.2880	61.935
4.2844	61.841
4.2809	61.801
4.2774	61.852
4.2738	62.011
4.2703	62.278
4.2668	62.629
4.2633	63.018
4.2598	63.381
4.2563	63.661
4.2528	63.831
4.2493	63.894
4.2458	63.885
4.2424	63.853
4.2389	63.839
4.2354	63.859
4.2320	63.907
4.2285	63.964
4.2251	64.022
4.2216	64.091
4.2182	64.192
4.2148	64.347
4.2113	64.566
4.2079	64.835
4.2045	65.115
4.2011	65.360
4.1977	65.535
4.1943	65.619
4.1909	65.612
4.1875	65.531
4.1841	65.401
4.1808	65.244
4.1774	65.070
4.1740	64.877
4.1707	64.655
4.1673	64.389
4.1640	64.070
4.1606	63.710
4.1573	63.333
4.1540	62.983
4.1506	62.700
4.1473	62.509
4.1440	62.409
4.1407	62.376
4.1374	62.378
4.1341	62.380
4.1308	62.358
4.1275	62.302
4.1242	62.212
4.1209	62.090
4.1177	61.942
4.1144	61.771
4.1111	61.580
4.1079	61.366
4.1046	61.129
4.1014	60.865
4.0981	60.567
4.0949	60.229
4.0917	59.852
4.0884	59.437
4.0852	58.980
4.0820	58.482
4.0788	57.946
4.0756	57.375
4.0724	56.767
4.0692	56.126
4.0660	55.453
4.0628	54.749
4.0596	54.006
4.0565	53.222
4.0533	52.392
4.0501	51.510
4.0470	50.571
4.0438	49.572
4.0406	48.509
4.0375	47.379
4.0344	46.181
4.0312	44.914
4.0281	43.576
4.0250	42.161
4.0218	40.657
4.0187	39.055
4.0156	37.350
4.0125	35.556
4.0094	33.699
4.0063	31.816
4.0032	29.946
4.0001	28.118
3.9970	26.335
3.9940	24.574
3.9909	22.798
3.9878	20.976
3.9847	19.098
3.9817	17.199
3.9786	15.354
3.9756	13.670
3.9725	12.249
3.9695	11.162
3.9665	10.427
3.9634	10.003
3.9604	9.8155
3.9574	9.7800
3.9544	9.8243
3.9513	9.9034
3.9483	10.001
3.9453	10.120
3.9423	10.267
3.9393	10.443
3.9363	10.641
3.9333	10.848
3.9304	11.050
3.9274	11.243
3.9244	11.440
3.9214	11.674
3.9185	11.990
3.9155	12.433
3.9126	13.035
3.9096	13.797
3.9067	14.688
3.9037	15.642
3.9008	16.573
3.8979	17.393
3.8949	18.039
3.8920	18.487
3.8891	18.764
3.8862	18.934
3.8833	19.070
3.8804	19.236
3.8775	19.465
3.8746	19.764
3.8717	20.129
3.8688	20.573
3.8659	21.139
3.8630	21.899
3.8601	22.926
3.8573	24.258
3.8544	25.862
3.8515	27.616
3.8487	29.335
3.8458	30.812
3.8430	31.874
3.8401	32.424
3.8373	32.465
3.8344	32.066
3.8316	31.330
3.8288	30.355
3.8259	29.219
3.8231	27.965
3.8203	26.630
3.8175	25.266
3.8147	23.957
3.8119	22.812
3.8091	21.945
3.8063	21.452
3.8035	21.380
3.8007	21.713
3.7979	22.390
3.7951	23.328
3.7924	24.444
3.7896	25.675
3.7868	26.980
3.7841	28.332
3.7813	29.708
3.7785	31.095
3.7758	32.489
3.7730	33.896
3.7703	35.331
3.7676	36.812
3.7648	38.366
3.7621	40.009
3.7594	41.755
3.7566	43.606
3.7539	45.547
3.7512	47.544
3.7485	49.539
3.7458	51.457
3.7431	53.227
3.7404	54.795
3.7377	56.130
3.7350	57.229
3.7323	58.116
3.7296	58.833
3.7269	59.421
3.7242	59.917
3.7216	60.353
3.7189	60.756
3.7162	61.136
3.7136	61.497
3.7109	61.849
3.7083	62.196
3.7056	62.545
3.7030	62.899
3.7003	63.263
3.6977	63.640
3.6950	64.022
3.6924	64.396
3.6898	64.749
3.6872	65.075
3.6845	65.363
3.6819	65.614
3.6793	65.832
3.6767	66.025
3.6741	66.199
3.6715	66.355
3.6689	66.494
3.6663	66.617
3.6637	66.721
3.6611	66.810
3.6585	66.886
3.6560	66.956
3.6534	67.022
3.6508	67.084
3.6482	67.138
3.6457	67.183
3.6431	67.218
3.6406	67.242
3.6380	67.257
3.6355	67.265
3.6329	67.264
3.6304	67.255
3.6278	67.235
3.6253	67.207
3.6227	67.172
3.6202	67.130
3.6177	67.083
3.6152	67.033
3.6127	66.979
3.6101	66.923
3.6076	66.864
3.6051	66.801
3.6026	66.735
3.6001	66.665
3.5976	66.591
3.5951	66.510
3.5926	66.420
3.5901	66.317
3.5876	66.199
3.5852	66.060
3.5827	65.901
3.5802	65.720
3.5777	65.515
3.5753	65.278
3.5728	65.004
3.5704	64.680
3.5679	64.280
3.5654	63.768
3.5630	63.100
3.5605	62.245
3.5581	61.220
3.5557	60.109
3.5532	59.047
3.5508	58.191
3.5484	57.658
3.5459	57.475
3.5435	57.563
3.5411	57.764
3.5387	57.908
3.5363	57.865
3.5338	57.567
3.5314	57.012
3.5290	56.231
3.5266	55.264
3.5242	54.136
3.5218	52.856
3.5195	51.423
3.5171	49.837
3.5147	48.099
3.5123	46.211
3.5099	44.185
3.5075	42.044
3.5052	39.814
3.5028	37.533
3.5004	35.257
3.4981	33.050
3.4957	30.979
3.4934	29.103
3.4910	27.465
3.4887	26.077
3.4863	24.915
3.4840	23.937
3.4816	23.097
3.4793	22.352
3.4770	21.670
3.4746	21.040
3.4723	20.459
3.4700	19.928
3.4677	19.442
3.4653	19.002
3.4630	18.606
3.4607	18.249
3.4584	17.933
3.4561	17.666
3.4538	17.463
3.4515	17.350
3.4492	17.360
3.4469	17.529
3.4446	17.885
3.4423	18.442
3.4400	19.195
3.4378	20.111
3.4355	21.129
3.4332	22.176
3.4309	23.179
3.4287	24.083
3.4264	24.854
3.4241	25.482
3.4219	25.987
3.4196	26.392
3.4174	26.715
3.4151	26.976
3.4129	27.198
3.4106	27.398
3.4084	27.587
3.4061	27.782
3.4039	27.997
3.4017	28.239
3.3994	28.497
3.3972	28.758
3.3950	29.010
3.3928	29.251
3.3906	29.501
3.3883	29.802
3.3861	30.199
3.3839	30.709
3.3817	31.301
3.3795	31.894
3.3773	32.379
3.3751	32.654
3.3729	32.665
3.3707	32.412
3.3685	31.947
3.3663	31.343
3.3641	30.678
3.3620	30.010
3.3598	29.371
3.3576	28.771
3.3554	28.212
3.3533	27.691
3.3511	27.204
3.3489	26.751
3.3468	26.342
3.3446	25.996
3.3425	25.727
3.3403	25.543
3.3382	25.447
3.3360	25.420
3.3339	25.434
3.3317	25.455
3.3296	25.446
3.3274	25.377
3.3253	25.220
3.3232	24.949
3.3210	24.556
3.3189	24.050
3.3168	23.466
3.3147	22.869
3.3126	22.341
3.3104	21.981
3.3083	21.899
3.3062	22.219
3.3041	23.079
3.3020	24.597
3.2999	26.817
3.2978	29.677
3.2957	32.983
3.2936	36.441
3.2915	39.733
3.2894	42.612
3.2874	44.959
3.2853	46.783
3.2832	48.174
3.2811	49.257
3.2790	50.137
3.2770	50.881
3.2749	51.525
3.2728	52.090
3.2708	52.595
3.2687	53.053
3.2666	53.471
3.2646	53.854
3.2625	54.211
3.2605	54.542
3.2584	54.850
3.2564	55.139
3.2543	55.411
3.2523	55.667
3.2503	55.908
3.2482	56.133
3.2462	56.345
3.2442	56.541
3.2421	56.719
3.2401	56.880
3.2381	57.028
3.2361	57.169
3.2340	57.306
3.2320	57.437
3.2300	57.558
3.2280	57.670
3.2260	57.769
3.2240	57.857
3.2220	57.938
3.2200	58.013
3.2180	58.085
3.2160	58.150
3.2140	58.207
3.2120	58.258
3.2100	58.301
3.2080	58.338
3.2060	58.373
