Name: Argillaceous Limestone 
Type:  Rocks
Class:  Sedimentary
Subclass: Limestone
Particle Size:  0 - 75 Micrometers
Sample No.:  limestone.6
Owner:  JHU
Wavelength Range:  All
Origin:  Sample No. 359,  The Hunt and Salisbury Collection at the U.S. 
Geological Survey, Denver, Co.
Description: A fine-grained sample with uniserial and some biserial 
foraminiferid tests recrystallized to calcite ("globigerinid ooze").  The 
matrix contains cloudy brown material (clay), carbonate, quartz and 
a reddish-brown phase (hematite?).  There are scattered subrounded 
grains of quartz present as well.  The reddish material occurs as 
irregular flecks and discontinuous bands throughout the section. 
Measurement:  Directional (10 Degree) Hemispherical Reflectance
First Column:  X
Second Column:  Y  
X Units:  Wavelength (micrometers)
Y Units:  Reflectance (percent)
First X Value: 14.9831
Last X Value:  0.4
Number of X Values:  2868
Additional Information:  None

14.983	9.0509
14.940	9.1094
14.897	9.1688
14.854	9.2616
14.812	9.3947
14.770	9.5458
14.728	9.6687
14.686	9.7071
14.645	9.6060
14.603	9.3286
14.562	8.8766
14.521	8.3025
14.481	7.7069
14.441	7.2120
14.400	6.9155
14.361	6.8471
14.321	6.9378
14.281	7.0280
14.242	6.9214
14.203	6.4639
14.164	5.6170
14.126	4.4910
14.087	3.3237
14.049	2.4096
14.011	1.9992
13.973	2.2180
13.936	3.0329
13.899	4.2759
13.861	5.7089
13.824	7.1019
13.788	8.2935
13.751	9.2145
13.715	9.8726
13.679	10.319
13.643	10.615
13.607	10.808
13.571	10.926
13.536	10.985
13.500	10.996
13.465	10.970
13.430	10.921
13.396	10.860
13.361	10.791
13.327	10.717
13.293	10.634
13.259	10.540
13.225	10.430
13.191	10.296
13.158	10.130
13.124	9.9110
13.091	9.6169
13.058	9.2223
13.026	8.7129
12.993	8.0939
12.960	7.4010
12.928	6.6998
12.896	6.0734
12.864	5.6007
12.832	5.3333
12.800	5.2760
12.769	5.3816
12.737	5.5638
12.706	5.7212
12.675	5.7667
12.644	5.6511
12.614	5.3769
12.583	4.9971
12.552	4.6037
12.522	4.3051
12.492	4.2023
12.462	4.3657
12.432	4.8183
12.402	5.5306
12.373	6.4291
12.343	7.4130
12.314	8.3802
12.285	9.2462
12.256	9.9602
12.227	10.507
12.198	10.901
12.169	11.171
12.141	11.357
12.113	11.503
12.084	11.654
12.056	11.843
12.028	12.083
12.000	12.351
11.973	12.580
11.945	12.672
11.918	12.541
11.890	12.174
11.863	11.649
11.836	11.123
11.809	10.782
11.782	10.769
11.755	11.106
11.729	11.675
11.702	12.265
11.676	12.643
11.650	12.621
11.624	12.098
11.598	11.080
11.572	9.6649
11.546	8.0006
11.520	6.2522
11.495	4.5855
11.469	3.1437
11.444	2.0288
11.419	1.3027
11.394	0.99980
11.369	1.1351
11.344	1.6973
11.319	2.6410
11.294	3.8748
11.270	5.2583
11.245	6.6164
11.221	7.7801
11.197	8.6300
11.173	9.1212
11.149	9.2801
11.125	9.1842
11.101	8.9277
11.077	8.5933
11.054	8.2386
11.030	7.8999
11.007	7.6011
10.983	7.3583
10.960	7.1824
10.937	7.0775
10.914	7.0396
10.891	7.0547
10.868	7.1045
10.846	7.1689
10.823	7.2328
10.800	7.2871
10.778	7.3283
10.756	7.3583
10.733	7.3830
10.711	7.4076
10.689	7.4379
10.667	7.4765
10.645	7.5232
10.623	7.5736
10.602	7.6217
10.580	7.6591
10.558	7.6776
10.537	7.6700
10.516	7.6312
10.494	7.5587
10.473	7.4519
10.452	7.3124
10.431	7.1431
10.410	6.9489
10.389	6.7346
10.368	6.5049
10.348	6.2640
10.327	6.0161
10.306	5.7650
10.286	5.5147
10.266	5.2699
10.245	5.0347
10.225	4.8126
10.205	4.6049
10.185	4.4119
10.165	4.2326
10.145	4.0664
10.125	3.9120
10.106	3.7687
10.086	3.6363
10.066	3.5153
10.047	3.4054
10.027	3.3071
10.008	3.2202
9.9887	3.1442
9.9695	3.0772
9.9504	3.0175
9.9313	2.9633
9.9123	2.9133
9.8934	2.8669
9.8746	2.8245
9.8558	2.7864
9.8371	2.7532
9.8185	2.7243
9.7999	2.6997
9.7814	2.6789
9.7630	2.6620
9.7447	2.6495
9.7264	2.6410
9.7082	2.6362
9.6900	2.6346
9.6719	2.6350
9.6539	2.6377
9.6360	2.6438
9.6181	2.6547
9.6003	2.6722
9.5825	2.6964
9.5649	2.7265
9.5472	2.7606
9.5297	2.7966
9.5122	2.8340
9.4948	2.8747
9.4774	2.9218
9.4601	2.9791
9.4429	3.0509
9.4257	3.1404
9.4086	3.2491
9.3916	3.3760
9.3746	3.5179
9.3577	3.6678
9.3408	3.8165
9.3240	3.9529
9.3073	4.0675
9.2906	4.1542
9.2740	4.2115
9.2574	4.2426
9.2409	4.2542
9.2245	4.2542
9.2081	4.2487
9.1918	4.2407
9.1755	4.2302
9.1593	4.2165
9.1431	4.1983
9.1270	4.1751
9.1110	4.1488
9.0950	4.1213
9.0791	4.0948
9.0632	4.0694
9.0474	4.0453
9.0316	4.0214
9.0159	3.9965
9.0003	3.9707
8.9847	3.9449
8.9691	3.9210
8.9536	3.9008
8.9382	3.8871
8.9228	3.8809
8.9075	3.8833
8.8922	3.8944
8.8770	3.9155
8.8618	3.9465
8.8467	3.9882
8.8316	4.0406
8.8166	4.1028
8.8016	4.1741
8.7867	4.2534
8.7718	4.3411
8.7570	4.4375
8.7423	4.5433
8.7275	4.6563
8.7129	4.7707
8.6982	4.8749
8.6837	4.9554
8.6692	4.9994
8.6547	5.0027
8.6403	4.9717
8.6259	4.9248
8.6116	4.8884
8.5973	4.8872
8.5830	4.9383
8.5688	5.0461
8.5547	5.2019
8.5406	5.3895
8.5266	5.5917
8.5126	5.7980
8.4986	6.0047
8.4847	6.2164
8.4708	6.4402
8.4570	6.6846
8.4432	6.9546
8.4295	7.2530
8.4158	7.5798
8.4022	7.9345
8.3886	8.3163
8.3750	8.7233
8.3615	9.1546
8.3481	9.6074
8.3347	10.079
8.3213	10.567
8.3079	11.068
8.2946	11.582
8.2814	12.106
8.2682	12.635
8.2550	13.164
8.2419	13.682
8.2288	14.178
8.2158	14.639
8.2028	15.056
8.1898	15.420
8.1769	15.731
8.1640	15.985
8.1512	16.185
8.1384	16.333
8.1256	16.433
8.1129	16.494
8.1002	16.532
8.0876	16.569
8.0750	16.627
8.0624	16.728
8.0499	16.879
8.0374	17.077
8.0250	17.300
8.0126	17.524
8.0002	17.717
7.9879	17.855
7.9756	17.922
7.9634	17.916
7.9512	17.845
7.9390	17.733
7.9268	17.608
7.9147	17.500
7.9027	17.428
7.8906	17.402
7.8787	17.410
7.8667	17.432
7.8548	17.443
7.8429	17.428
7.8310	17.386
7.8192	17.328
7.8075	17.274
7.7957	17.241
7.7840	17.237
7.7723	17.252
7.7607	17.266
7.7491	17.253
7.7375	17.193
7.7260	17.071
7.7145	16.882
7.7031	16.632
7.6916	16.329
7.6802	15.985
7.6689	15.611
7.6575	15.222
7.6462	14.833
7.6350	14.459
7.6238	14.115
7.6126	13.815
7.6014	13.564
7.5903	13.365
7.5792	13.211
7.5681	13.094
7.5571	13.004
7.5461	12.927
7.5351	12.852
7.5242	12.770
7.5133	12.670
7.5024	12.547
7.4916	12.396
7.4807	12.220
7.4700	12.021
7.4592	11.807
7.4485	11.586
7.4378	11.362
7.4272	11.139
7.4165	10.913
7.4059	10.676
7.3954	10.420
7.3848	10.134
7.3743	9.8120
7.3639	9.4501
7.3534	9.0528
7.3430	8.6284
7.3326	8.1903
7.3223	7.7526
7.3119	7.3299
7.3016	6.9342
7.2914	6.5728
7.2811	6.2481
7.2709	5.9543
7.2607	5.6805
7.2506	5.4127
7.2404	5.1382
7.2303	4.8493
7.2203	4.5454
7.2102	4.2345
7.2002	3.9285
7.1902	3.6420
7.1803	3.3895
7.1703	3.1830
7.1604	3.0296
7.1506	2.9311
7.1407	2.8818
7.1309	2.8695
7.1211	2.8766
7.1113	2.8844
7.1016	2.8771
7.0919	2.8465
7.0822	2.7925
7.0725	2.7224
7.0629	2.6459
7.0533	2.5730
7.0437	2.5086
7.0341	2.4541
7.0246	2.4070
7.0151	2.3634
7.0056	2.3208
6.9962	2.2789
6.9867	2.2391
6.9773	2.2043
6.9679	2.1761
6.9586	2.1557
6.9493	2.1420
6.9400	2.1325
6.9307	2.1247
6.9214	2.1164
6.9122	2.1055
6.9030	2.0920
6.8938	2.0762
6.8847	2.0594
6.8755	2.0444
6.8664	2.0338
6.8573	2.0290
6.8483	2.0307
6.8393	2.0371
6.8302	2.0451
6.8213	2.0525
6.8123	2.0570
6.8034	2.0594
6.7944	2.0612
6.7855	2.0648
6.7767	2.0721
6.7678	2.0826
6.7590	2.0949
6.7502	2.1067
6.7414	2.1178
6.7327	2.1285
6.7239	2.1403
6.7152	2.1555
6.7065	2.1754
6.6979	2.1993
6.6892	2.2254
6.6806	2.2512
6.6720	2.2760
6.6634	2.3009
6.6549	2.3279
6.6464	2.3611
6.6378	2.4032
6.6294	2.4551
6.6209	2.5143
6.6124	2.5775
6.6040	2.6410
6.5956	2.7025
6.5872	2.7627
6.5789	2.8233
6.5705	2.8868
6.5622	2.9543
6.5539	3.0244
6.5456	3.0940
6.5374	3.1594
6.5292	3.2179
6.5209	3.2707
6.5128	3.3225
6.5046	3.3834
6.4964	3.4653
6.4883	3.5799
6.4802	3.7334
6.4721	3.9231
6.4640	4.1365
6.4560	4.3517
6.4480	4.5445
6.4399	4.6939
6.4320	4.7879
6.4240	4.8277
6.4160	4.8235
6.4081	4.7910
6.4002	4.7434
6.3923	4.6871
6.3844	4.6207
6.3766	4.5364
6.3687	4.4254
6.3609	4.2821
6.3531	4.1078
6.3454	3.9112
6.3376	3.7059
6.3299	3.5089
6.3221	3.3365
6.3144	3.2013
6.3068	3.1108
6.2991	3.0668
6.2914	3.0637
6.2838	3.0907
6.2762	3.1345
6.2686	3.1804
6.2611	3.2179
6.2535	3.2399
6.2460	3.2460
6.2385	3.2396
6.2310	3.2259
6.2235	3.2100
6.2160	3.1956
6.2086	3.1847
6.2011	3.1781
6.1937	3.1776
6.1863	3.1849
6.1790	3.2032
6.1716	3.2332
6.1643	3.2752
6.1570	3.3266
6.1496	3.3832
6.1424	3.4416
6.1351	3.4992
6.1278	3.5567
6.1206	3.6164
6.1134	3.6801
6.1062	3.7502
6.0990	3.8255
6.0918	3.9034
6.0847	3.9806
6.0776	4.0564
6.0704	4.1343
6.0633	4.2210
6.0563	4.3243
6.0492	4.4512
6.0421	4.6037
6.0351	4.7766
6.0281	4.9601
6.0211	5.1432
6.0141	5.3163
6.0071	5.4749
6.0002	5.6196
5.9932	5.7539
5.9863	5.8830
5.9794	6.0090
5.9725	6.1323
5.9657	6.2536
5.9588	6.3758
5.9520	6.5046
5.9451	6.6474
5.9383	6.8106
5.9315	6.9958
5.9247	7.1971
5.9180	7.4026
5.9112	7.6016
5.9045	7.7875
5.8978	7.9606
5.8911	8.1275
5.8844	8.2959
5.8777	8.4695
5.8711	8.6435
5.8644	8.8067
5.8578	8.9450
5.8512	9.0494
5.8446	9.1200
5.8380	9.1660
5.8314	9.2029
5.8249	9.2458
5.8184	9.3031
5.8118	9.3713
5.8053	9.4383
5.7988	9.4880
5.7923	9.5096
5.7859	9.5037
5.7794	9.4826
5.7730	9.4686
5.7666	9.4864
5.7602	9.5541
5.7538	9.6777
5.7474	9.8518
5.7410	10.063
5.7347	10.296
5.7283	10.537
5.7220	10.778
5.7157	11.017
5.7094	11.258
5.7031	11.508
5.6969	11.774
5.6906	12.063
5.6844	12.380
5.6782	12.720
5.6719	13.071
5.6657	13.413
5.6596	13.724
5.6534	13.975
5.6472	14.140
5.6411	14.184
5.6349	14.064
5.6288	13.726
5.6227	13.112
5.6166	12.180
5.6106	10.922
5.6045	9.3843
5.5984	7.6686
5.5924	5.9206
5.5864	4.3063
5.5804	2.9836
5.5744	2.0854
5.5684	1.7072
5.5624	1.9049
5.5564	2.6898
5.5505	4.0221
5.5445	5.8051
5.5386	7.8909
5.5327	10.101
5.5268	12.260
5.5209	14.231
5.5151	15.934
5.5092	17.357
5.5033	18.536
5.4975	19.531
5.4917	20.402
5.4859	21.198
5.4801	21.949
5.4743	22.671
5.4685	23.367
5.4628	24.035
5.4570	24.666
5.4513	25.250
5.4455	25.777
5.4398	26.242
5.4341	26.644
5.4284	26.983
5.4228	27.260
5.4171	27.468
5.4114	27.600
5.4058	27.647
5.4002	27.608
5.3945	27.490
5.3889	27.310
5.3833	27.094
5.3778	26.869
5.3722	26.666
5.3666	26.509
5.3611	26.419
5.3555	26.411
5.3500	26.491
5.3445	26.654
5.3390	26.889
5.3335	27.177
5.3280	27.497
5.3225	27.832
5.3171	28.171
5.3116	28.512
5.3062	28.862
5.3008	29.228
5.2954	29.622
5.2900	30.051
5.2846	30.518
5.2792	31.024
5.2738	31.564
5.2684	32.136
5.2631	32.735
5.2578	33.357
5.2524	34.000
5.2471	34.656
5.2418	35.314
5.2365	35.960
5.2312	36.579
5.2260	37.154
5.2207	37.674
5.2154	38.134
5.2102	38.531
5.2050	38.868
5.1998	39.147
5.1945	39.374
5.1893	39.553
5.1842	39.693
5.1790	39.802
5.1738	39.889
5.1686	39.962
5.1635	40.028
5.1584	40.097
5.1532	40.176
5.1481	40.274
5.1430	40.384
5.1379	40.483
5.1328	40.528
5.1277	40.468
5.1227	40.268
5.1176	39.935
5.1126	39.525
5.1075	39.138
5.1025	38.882
5.0975	38.835
5.0925	39.011
5.0875	39.359
5.0825	39.780
5.0775	40.176
5.0726	40.478
5.0676	40.664
5.0627	40.754
5.0577	40.791
5.0528	40.810
5.0479	40.830
5.0430	40.857
5.0380	40.883
5.0332	40.903
5.0283	40.917
5.0234	40.933
5.0185	40.961
5.0137	41.013
5.0088	41.095
5.0040	41.213
4.9992	41.372
4.9944	41.574
4.9896	41.824
4.9848	42.122
4.9800	42.467
4.9752	42.849
4.9704	43.253
4.9657	43.659
4.9609	44.044
4.9562	44.391
4.9514	44.690
4.9467	44.943
4.9420	45.161
4.9373	45.363
4.9326	45.571
4.9279	45.807
4.9232	46.087
4.9186	46.416
4.9139	46.793
4.9092	47.208
4.9046	47.645
4.9000	48.082
4.8953	48.503
4.8907	48.893
4.8861	49.242
4.8815	49.547
4.8769	49.812
4.8723	50.040
4.8678	50.238
4.8632	50.412
4.8586	50.567
4.8541	50.707
4.8495	50.835
4.8450	50.954
4.8405	51.064
4.8360	51.167
4.8315	51.262
4.8270	51.348
4.8225	51.425
4.8180	51.494
4.8135	51.557
4.8090	51.615
4.8046	51.669
4.8001	51.720
4.7957	51.766
4.7913	51.803
4.7868	51.828
4.7824	51.835
4.7780	51.821
4.7736	51.784
4.7692	51.722
4.7648	51.638
4.7605	51.534
4.7561	51.413
4.7517	51.272
4.7474	51.104
4.7431	50.892
4.7387	50.607
4.7344	50.217
4.7301	49.684
4.7258	48.985
4.7215	48.111
4.7172	47.078
4.7129	45.930
4.7086	44.727
4.7043	43.538
4.7000	42.427
4.6958	41.446
4.6915	40.624
4.6873	39.973
4.6831	39.491
4.6788	39.172
4.6746	39.008
4.6704	39.001
4.6662	39.160
4.6620	39.498
4.6578	40.023
4.6536	40.729
4.6495	41.592
4.6453	42.567
4.6411	43.596
4.6370	44.618
4.6328	45.580
4.6287	46.443
4.6246	47.187
4.6205	47.805
4.6163	48.306
4.6122	48.703
4.6081	49.017
4.6040	49.265
4.6000	49.466
4.5959	49.633
4.5918	49.774
4.5877	49.894
4.5837	49.996
4.5796	50.081
4.5756	50.152
4.5716	50.212
4.5675	50.266
4.5635	50.313
4.5595	50.356
4.5555	50.393
4.5515	50.423
4.5475	50.445
4.5435	50.460
4.5395	50.470
4.5356	50.475
4.5316	50.479
4.5276	50.482
4.5237	50.485
4.5197	50.492
4.5158	50.505
4.5119	50.530
4.5080	50.572
4.5040	50.637
4.5001	50.730
4.4962	50.855
4.4923	51.014
4.4884	51.202
4.4846	51.414
4.4807	51.641
4.4768	51.874
4.4730	52.104
4.4691	52.325
4.4652	52.538
4.4614	52.742
4.4576	52.945
4.4537	53.151
4.4499	53.361
4.4461	53.575
4.4423	53.790
4.4385	53.999
4.4347	54.198
4.4309	54.382
4.4271	54.552
4.4233	54.707
4.4196	54.850
4.4158	54.982
4.4120	55.104
4.4083	55.220
4.4045	55.329
4.4008	55.436
4.3971	55.542
4.3934	55.647
4.3896	55.748
4.3859	55.841
4.3822	55.919
4.3785	55.973
4.3748	55.997
4.3711	55.986
4.3674	55.940
4.3638	55.863
4.3601	55.766
4.3564	55.660
4.3528	55.561
4.3491	55.479
4.3455	55.421
4.3418	55.388
4.3382	55.375
4.3346	55.373
4.3310	55.375
4.3273	55.373
4.3237	55.366
4.3201	55.360
4.3165	55.358
4.3129	55.369
4.3094	55.394
4.3058	55.425
4.3022	55.450
4.2986	55.451
4.2951	55.415
4.2915	55.335
4.2880	55.215
4.2844	55.070
4.2809	54.924
4.2774	54.801
4.2738	54.722
4.2703	54.701
4.2668	54.737
4.2633	54.820
4.2598	54.932
4.2563	55.053
4.2528	55.162
4.2493	55.246
4.2458	55.300
4.2424	55.326
4.2389	55.331
4.2354	55.325
4.2320	55.314
4.2285	55.303
4.2251	55.293
4.2216	55.281
4.2182	55.263
4.2148	55.237
4.2113	55.201
4.2079	55.154
4.2045	55.096
4.2011	55.029
4.1977	54.953
4.1943	54.869
4.1909	54.776
4.1875	54.676
4.1841	54.570
4.1808	54.458
4.1774	54.341
4.1740	54.218
4.1707	54.088
4.1673	53.949
4.1640	53.798
4.1606	53.634
4.1573	53.456
4.1540	53.259
4.1506	53.043
4.1473	52.806
4.1440	52.548
4.1407	52.270
4.1374	51.974
4.1341	51.664
4.1308	51.342
4.1275	51.012
4.1242	50.673
4.1209	50.327
4.1177	49.974
4.1144	49.615
4.1111	49.250
4.1079	48.878
4.1046	48.498
4.1014	48.109
4.0981	47.708
4.0949	47.290
4.0917	46.848
4.0884	46.378
4.0852	45.872
4.0820	45.327
4.0788	44.747
4.0756	44.135
4.0724	43.498
4.0692	42.836
4.0660	42.140
4.0628	41.384
4.0596	40.531
4.0565	39.535
4.0533	38.360
4.0501	36.988
4.0470	35.434
4.0438	33.742
4.0407	31.980
4.0375	30.222
4.0344	28.528
4.0312	26.930
4.0281	25.422
4.0250	23.965
4.0218	22.503
4.0187	20.980
4.0156	19.367
4.0125	17.665
4.0094	15.916
4.0063	14.185
4.0032	12.547
4.0001	11.069
3.9970	9.7994
3.9940	8.7605
3.9909	7.9544
3.9878	7.3673
3.9847	6.9761
3.9817	6.7528
3.9786	6.6683
3.9756	6.6950
3.9725	6.8132
3.9695	7.0124
3.9665	7.2975
3.9634	7.6873
3.9604	8.2109
3.9574	8.8986
3.9544	9.7696
3.9513	10.818
3.9483	12.002
3.9453	13.248
3.9423	14.464
3.9393	15.559
3.9363	16.469
3.9333	17.171
3.9304	17.688
3.9274	18.069
3.9244	18.371
3.9214	18.639
3.9185	18.895
3.9155	19.144
3.9126	19.376
3.9096	19.583
3.9067	19.764
3.9037	19.920
3.9008	20.059
3.8979	20.189
3.8949	20.314
3.8920	20.434
3.8891	20.550
3.8862	20.660
3.8833	20.760
3.8804	20.851
3.8775	20.931
3.8746	21.005
3.8717	21.078
3.8688	21.157
3.8659	21.247
3.8630	21.351
3.8601	21.469
3.8573	21.602
3.8544	21.753
3.8515	21.933
3.8487	22.162
3.8458	22.467
3.8430	22.879
3.8401	23.422
3.8373	24.106
3.8344	24.928
3.8316	25.866
3.8288	26.892
3.8259	27.974
3.8231	29.088
3.8203	30.223
3.8175	31.383
3.8147	32.583
3.8119	33.847
3.8091	35.194
3.8063	36.636
3.8035	38.166
3.8007	39.756
3.7979	41.355
3.7951	42.900
3.7924	44.324
3.7896	45.575
3.7868	46.622
3.7841	47.459
3.7813	48.108
3.7785	48.603
3.7758	48.983
3.7730	49.284
3.7703	49.530
3.7676	49.735
3.7648	49.905
3.7621	50.042
3.7594	50.150
3.7566	50.232
3.7539	50.299
3.7512	50.360
3.7485	50.423
3.7458	50.494
3.7431	50.574
3.7404	50.659
3.7377	50.745
3.7350	50.825
3.7323	50.895
3.7296	50.951
3.7269	50.993
3.7242	51.022
3.7216	51.039
3.7189	51.044
3.7162	51.039
3.7136	51.026
3.7109	51.005
3.7083	50.979
3.7056	50.947
3.7030	50.913
3.7003	50.875
3.6977	50.835
3.6950	50.791
3.6924	50.743
3.6898	50.690
3.6872	50.632
3.6845	50.567
3.6819	50.495
3.6793	50.417
3.6767	50.332
3.6741	50.240
3.6715	50.143
3.6689	50.041
3.6663	49.934
3.6637	49.825
3.6611	49.715
3.6585	49.604
3.6560	49.492
3.6534	49.380
3.6508	49.263
3.6482	49.142
3.6457	49.014
3.6431	48.882
3.6406	48.746
3.6380	48.610
3.6355	48.474
3.6329	48.339
3.6304	48.201
3.6278	48.061
3.6253	47.914
3.6227	47.760
3.6202	47.599
3.6177	47.428
3.6152	47.249
3.6127	47.060
3.6101	46.859
3.6076	46.644
3.6051	46.417
3.6026	46.174
3.6001	45.915
3.5976	45.634
3.5951	45.326
3.5926	44.980
3.5901	44.588
3.5876	44.143
3.5852	43.647
3.5827	43.116
3.5802	42.577
3.5777	42.068
3.5753	41.623
3.5728	41.270
3.5704	41.015
3.5679	40.845
3.5654	40.725
3.5630	40.617
3.5605	40.481
3.5581	40.288
3.5557	40.020
3.5532	39.673
3.5508	39.246
3.5484	38.741
3.5459	38.157
3.5435	37.489
3.5411	36.723
3.5387	35.840
3.5363	34.814
3.5338	33.627
3.5314	32.268
3.5290	30.749
3.5266	29.110
3.5242	27.416
3.5218	25.747
3.5195	24.185
3.5171	22.795
3.5147	21.609
3.5123	20.632
3.5099	19.836
3.5075	19.179
3.5052	18.612
3.5028	18.096
3.5004	17.601
3.4981	17.109
3.4957	16.613
3.4934	16.110
3.4910	15.603
3.4887	15.101
3.4863	14.628
3.4840	14.221
3.4816	13.936
3.4793	13.841
3.4770	14.000
3.4746	14.449
3.4723	15.184
3.4700	16.151
3.4677	17.252
3.4653	18.369
3.4630	19.390
3.4607	20.237
3.4584	20.873
3.4561	21.308
3.4538	21.577
3.4515	21.730
3.4492	21.813
3.4469	21.858
3.4446	21.885
3.4423	21.900
3.4400	21.907
3.4378	21.902
3.4355	21.885
3.4332	21.854
3.4309	21.810
3.4287	21.753
3.4264	21.687
3.4241	21.615
3.4219	21.543
3.4196	21.475
3.4174	21.413
3.4151	21.359
3.4129	21.312
3.4106	21.271
3.4084	21.232
3.4061	21.190
3.4039	21.141
3.4017	21.084
3.3994	21.016
3.3972	20.938
3.3950	20.850
3.3928	20.751
3.3906	20.645
3.3883	20.534
3.3861	20.422
3.3839	20.317
3.3817	20.225
3.3795	20.153
3.3773	20.098
3.3751	20.052
3.3729	20.000
3.3707	19.918
3.3685	19.780
3.3663	19.565
3.3641	19.259
3.3620	18.868
3.3598	18.418
3.3576	17.965
3.3554	17.594
3.3533	17.413
3.3511	17.535
3.3489	18.051
3.3468	19.005
3.3446	20.372
3.3425	22.053
3.3403	23.899
3.3382	25.741
3.3360	27.430
3.3339	28.866
3.3317	30.009
3.3296	30.874
3.3274	31.510
3.3253	31.978
3.3232	32.333
3.3210	32.613
3.3189	32.842
3.3168	33.034
3.3147	33.195
3.3126	33.331
3.3104	33.446
3.3083	33.544
3.3062	33.631
3.3041	33.708
3.3020	33.778
3.2999	33.839
3.2978	33.891
3.2957	33.932
3.2936	33.962
3.2915	33.982
3.2894	33.993
3.2874	34.001
3.2853	34.006
3.2832	34.012
3.2811	34.017
3.2790	34.022
3.2770	34.024
3.2749	34.024
3.2728	34.020
3.2708	34.014
3.2687	34.006
3.2666	33.998
3.2646	33.991
3.2625	33.985
3.2605	33.977
3.2584	33.967
3.2564	33.953
3.2543	33.934
3.2523	33.909
3.2503	33.881
3.2482	33.849
3.2462	33.815
3.2442	33.778
3.2421	33.739
3.2401	33.697
3.2381	33.653
3.2361	33.606
3.2340	33.558
3.2320	33.507
3.2300	33.453
3.2280	33.395
3.2260	33.330
3.2240	33.259
3.2220	33.182
3.2200	33.099
3.2180	33.015
3.2160	32.931
