Name: Glauconitic Sandstone 
Type:  Rocks
Class:  Sedimentary
Subclass: Sandstone 
Particle Size:  0 - 75 Micrometers
File Name:  sandstone.2
Owner:  JHU
Wavelength Range:  All
Origin:  Sample No. 364,  The Hunt and Salisbury Collection at the U.S. 
Geological Survey, Denver, Co.
Description: The sample is a well-sorted, medium fine-grained, 
somewhat compacted sandstone. The strain-free, angular to 
subangular quartz grains are in a matrix of sericite, glauconite 
(mostly as autochthonous microcrystalline masses), a yellowish-
brown microcrystalline material (clay and/or glauconite?), with some 
muscovite, biotite, carbonate and minor microcline and opaques.
Measurement:  Directional (10 Degree) Hemispherical Reflectance
First Column:  X
Second Column:  Y  
X Units:  Wavelength (micrometers)
Y Units:  Reflectance (percent)
First X Value: 14.0112
Last X Value:  0.4
Number of X Values: 2844
Additional Information:  None

14.983	3.4857
14.940	3.3533
14.897	3.2311
14.854	3.1407
14.812	3.0855
14.770	3.0549
14.728	3.0289
14.686	2.9853
14.645	2.9093
14.603	2.7947
14.562	2.6464
14.521	2.4778
14.481	2.3087
14.441	2.1612
14.400	2.0567
14.361	2.0118
14.321	2.0357
14.281	2.1273
14.242	2.2760
14.203	2.4619
14.164	2.6628
14.126	2.8569
14.087	3.0286
14.049	3.1703
14.011	3.2813
13.973	3.3673
13.936	3.4355
13.899	3.4935
13.861	3.5466
13.824	3.5977
13.788	3.6465
13.751	3.6910
13.715	3.7275
13.679	3.7523
13.643	3.7628
13.607	3.7573
13.571	3.7367
13.536	3.7024
13.500	3.6579
13.465	3.6065
13.430	3.5515
13.396	3.4963
13.361	3.4435
13.327	3.3948
13.293	3.3509
13.259	3.3112
13.225	3.2735
13.191	3.2351
13.158	3.1937
13.124	3.1480
13.091	3.0992
13.058	3.0507
13.026	3.0069
12.993	2.9723
12.960	2.9488
12.928	2.9349
12.896	2.9249
12.864	2.9112
12.832	2.8858
12.800	2.8437
12.769	2.7852
12.737	2.7156
12.706	2.6440
12.675	2.5808
12.644	2.5327
12.614	2.5020
12.583	2.4830
12.552	2.4657
12.522	2.4385
12.492	2.3926
12.462	2.3251
12.432	2.2422
12.402	2.1569
12.373	2.0859
12.343	2.0454
12.314	2.0459
12.285	2.0906
12.256	2.1749
12.227	2.2884
12.198	2.4191
12.169	2.5564
12.141	2.6945
12.113	2.8311
12.084	2.9690
12.056	3.1125
12.028	3.2666
12.000	3.4343
11.973	3.6162
11.945	3.8089
11.918	4.0079
11.890	4.2063
11.863	4.3984
11.836	4.5795
11.809	4.7467
11.782	4.8976
11.755	5.0300
11.729	5.1413
11.702	5.2282
11.676	5.2881
11.650	5.3198
11.624	5.3241
11.598	5.3037
11.572	5.2639
11.546	5.2099
11.520	5.1479
11.495	5.0835
11.469	5.0217
11.444	4.9665
11.419	4.9208
11.394	4.8857
11.369	4.8604
11.344	4.8419
11.319	4.8258
11.294	4.8076
11.270	4.7825
11.245	4.7479
11.221	4.7027
11.197	4.6473
11.173	4.5824
11.149	4.5094
11.125	4.4289
11.101	4.3425
11.077	4.2520
11.054	4.1613
11.030	4.0749
11.007	3.9979
10.983	3.9342
10.960	3.8850
10.937	3.8492
10.914	3.8241
10.891	3.8054
10.868	3.7893
10.846	3.7732
10.823	3.7554
10.800	3.7360
10.778	3.7154
10.755	3.6953
10.733	3.6775
10.711	3.6635
10.689	3.6548
10.667	3.6508
10.645	3.6515
10.623	3.6548
10.602	3.6598
10.580	3.6643
10.558	3.6673
10.537	3.6671
10.516	3.6631
10.494	3.6538
10.473	3.6396
10.452	3.6207
10.431	3.5977
10.410	3.5719
10.389	3.5449
10.368	3.5184
10.348	3.4933
10.327	3.4708
10.306	3.4514
10.286	3.4355
10.266	3.4229
10.245	3.4130
10.225	3.4047
10.205	3.3981
10.185	3.3929
10.165	3.3895
10.145	3.3884
10.125	3.3898
10.106	3.3938
10.086	3.3997
10.066	3.4078
10.047	3.4175
10.027	3.4298
10.008	3.4454
9.9887	3.4651
9.9695	3.4892
9.9504	3.5167
9.9313	3.5456
9.9123	3.5738
9.8934	3.5987
9.8746	3.6197
9.8558	3.6373
9.8371	3.6543
9.8185	3.6742
9.7999	3.7005
9.7814	3.7367
9.7630	3.7841
9.7447	3.8421
9.7264	3.9084
9.7082	3.9797
9.6900	4.0517
9.6719	4.1206
9.6539	4.1831
9.6360	4.2369
9.6181	4.2802
9.6003	4.3124
9.5825	4.3340
9.5649	4.3465
9.5472	4.3536
9.5297	4.3614
9.5122	4.3773
9.4948	4.4107
9.4774	4.4713
9.4601	4.5675
9.4429	4.7051
9.4257	4.8850
9.4086	5.1041
9.3916	5.3530
9.3746	5.6187
9.3577	5.8851
9.3408	6.1361
9.3240	6.3585
9.3073	6.5427
9.2906	6.6858
9.2740	6.7902
9.2574	6.8622
9.2409	6.9108
9.2245	6.9434
9.2081	6.9674
9.1918	6.9863
9.1755	7.0019
9.1593	7.0152
9.1431	7.0259
9.1270	7.0341
9.1110	7.0405
9.0950	7.0450
9.0791	7.0467
9.0632	7.0450
9.0474	7.0391
9.0316	7.0289
9.0159	7.0154
9.0003	7.0000
8.9847	6.9851
8.9691	6.9721
8.9536	6.9617
8.9382	6.9534
8.9228	6.9453
8.9075	6.9352
8.8922	6.9205
8.8770	6.8989
8.8618	6.8693
8.8467	6.8326
8.8316	6.7902
8.8166	6.7450
8.8016	6.7002
8.7867	6.6576
8.7718	6.6162
8.7570	6.5700
8.7422	6.5082
8.7275	6.4165
8.7129	6.2822
8.6982	6.1013
8.6837	5.8839
8.6692	5.6566
8.6547	5.4581
8.6403	5.3291
8.6259	5.2992
8.6116	5.3783
8.5973	5.5517
8.5830	5.7849
8.5688	6.0355
8.5547	6.2645
8.5406	6.4466
8.5266	6.5731
8.5126	6.6498
8.4986	6.6908
8.4847	6.7121
8.4708	6.7268
8.4570	6.7431
8.4432	6.7646
8.4295	6.7926
8.4158	6.8281
8.4022	6.8717
8.3886	6.9250
8.3750	6.9901
8.3615	7.0685
8.3481	7.1623
8.3347	7.2724
8.3213	7.4005
8.3079	7.5483
8.2946	7.7174
8.2814	7.9085
8.2682	8.1211
8.2550	8.3518
8.2419	8.5929
8.2288	8.8320
8.2158	9.0535
8.2028	9.2379
8.1898	9.3670
8.1769	9.4250
8.1640	9.4030
8.1512	9.3000
8.1384	9.1240
8.1256	8.8905
8.1129	8.6196
8.1002	8.3314
8.0876	8.0437
8.0750	7.7695
8.0624	7.5163
8.0499	7.2868
8.0374	7.0801
8.0250	6.8925
8.0126	6.7185
8.0002	6.5508
7.9879	6.3831
7.9756	6.2098
7.9634	6.0279
7.9512	5.8377
7.9390	5.6431
7.9268	5.4503
7.9147	5.2658
7.9027	5.0951
7.8906	4.9414
7.8786	4.8062
7.8667	4.6899
7.8548	4.5926
7.8429	4.5149
7.8310	4.4581
7.8192	4.4230
7.8075	4.4095
7.7957	4.4150
7.7840	4.4353
7.7723	4.4652
7.7607	4.4986
7.7491	4.5315
7.7375	4.5613
7.7260	4.5876
7.7145	4.6108
7.7031	4.6307
7.6916	4.6468
7.6802	4.6575
7.6689	4.6608
7.6575	4.6558
7.6462	4.6442
7.6350	4.6293
7.6238	4.6158
7.6126	4.6094
7.6014	4.6139
7.5903	4.6314
7.5792	4.6605
7.5681	4.6989
7.5571	4.7420
7.5461	4.7853
7.5351	4.8256
7.5242	4.8606
7.5133	4.8895
7.5024	4.9127
7.4916	4.9322
7.4807	4.9495
7.4700	4.9672
7.4592	4.9871
7.4485	5.0105
7.4378	5.0375
7.4272	5.0669
7.4165	5.0963
7.4059	5.1226
7.3954	5.1427
7.3848	5.1545
7.3743	5.1583
7.3639	5.1560
7.3534	5.1507
7.3430	5.1465
7.3326	5.1470
7.3222	5.1538
7.3119	5.1683
7.3016	5.1908
7.2914	5.2208
7.2811	5.2580
7.2709	5.3014
7.2607	5.3492
7.2506	5.3977
7.2404	5.4437
7.2303	5.4823
7.2203	5.5102
7.2102	5.5254
7.2002	5.5278
7.1902	5.5199
7.1803	5.5060
7.1703	5.4901
7.1604	5.4761
7.1506	5.4667
7.1407	5.4626
7.1309	5.4626
7.1211	5.4638
7.1113	5.4626
7.1016	5.4558
7.0919	5.4411
7.0822	5.4193
7.0725	5.3932
7.0629	5.3670
7.0533	5.3459
7.0437	5.3336
7.0341	5.3312
7.0246	5.3381
7.0151	5.3527
7.0056	5.3736
6.9962	5.4018
6.9867	5.4399
6.9773	5.4927
6.9679	5.5640
6.9586	5.6552
6.9493	5.7636
6.9400	5.8837
6.9307	6.0061
6.9214	6.1217
6.9122	6.2235
6.9030	6.3090
6.8938	6.3812
6.8847	6.4478
6.8755	6.5188
6.8664	6.6031
6.8573	6.7038
6.8483	6.8184
6.8393	6.9385
6.8302	7.0540
6.8213	7.1556
6.8123	7.2397
6.8034	7.3077
6.7944	7.3652
6.7855	7.4180
6.7767	7.4694
6.7678	7.5189
6.7590	7.5637
6.7502	7.5994
6.7414	7.6264
6.7327	7.6487
6.7239	7.6754
6.7152	7.7171
6.7065	7.7820
6.6979	7.8720
6.6892	7.9819
6.6806	8.1008
6.6720	8.2168
6.6634	8.3210
6.6549	8.4107
6.6464	8.4894
6.6378	8.5621
6.6294	8.6308
6.6209	8.6928
6.6124	8.7409
6.6040	8.7679
6.5956	8.7721
6.5872	8.7619
6.5789	8.7544
6.5705	8.7702
6.5622	8.8278
6.5539	8.9365
6.5456	9.0944
6.5374	9.2908
6.5292	9.5122
6.5209	9.7495
6.5128	10.001
6.5046	10.273
6.4964	10.571
6.4883	10.896
6.4802	11.234
6.4721	11.560
6.4640	11.837
6.4560	12.035
6.4480	12.136
6.4399	12.146
6.4320	12.089
6.4240	12.002
6.4160	11.916
6.4081	11.845
6.4002	11.784
6.3923	11.717
6.3844	11.617
6.3766	11.472
6.3687	11.278
6.3609	11.049
6.3531	10.805
6.3454	10.563
6.3376	10.333
6.3299	10.117
6.3221	9.9084
6.3144	9.6988
6.3068	9.4826
6.2991	9.2593
6.2914	9.0319
6.2838	8.8055
6.2762	8.5853
6.2686	8.3759
6.2611	8.1810
6.2535	8.0027
6.2460	7.8424
6.2385	7.7003
6.2310	7.5769
6.2235	7.4722
6.2160	7.3882
6.2086	7.3299
6.2011	7.3062
6.1937	7.3271
6.1863	7.4017
6.1790	7.5331
6.1716	7.7169
6.1643	7.9400
6.1570	8.1836
6.1496	8.4285
6.1424	8.6601
6.1351	8.8728
6.1278	9.0677
6.1206	9.2517
6.1134	9.4298
6.1062	9.6012
6.0990	9.7570
6.0918	9.8854
6.0847	9.9770
6.0776	10.031
6.0704	10.058
6.0633	10.080
6.0563	10.121
6.0492	10.195
6.0421	10.307
6.0351	10.440
6.0281	10.572
6.0211	10.676
6.0141	10.735
6.0071	10.742
6.0002	10.705
5.9932	10.636
5.9863	10.548
5.9794	10.453
5.9725	10.356
5.9657	10.264
5.9588	10.184
5.9520	10.133
5.9451	10.125
5.9383	10.175
5.9315	10.285
5.9247	10.447
5.9180	10.643
5.9112	10.858
5.9045	11.083
5.8978	11.320
5.8911	11.581
5.8844	11.878
5.8777	12.213
5.8711	12.576
5.8644	12.941
5.8578	13.279
5.8512	13.571
5.8446	13.810
5.8380	14.013
5.8314	14.203
5.8249	14.407
5.8184	14.637
5.8118	14.889
5.8053	15.139
5.7988	15.363
5.7923	15.538
5.7859	15.661
5.7794	15.745
5.7730	15.817
5.7666	15.901
5.7602	16.013
5.7538	16.151
5.7474	16.303
5.7410	16.448
5.7347	16.570
5.7283	16.660
5.7220	16.719
5.7157	16.754
5.7094	16.771
5.7031	16.769
5.6969	16.744
5.6906	16.681
5.6844	16.568
5.6782	16.392
5.6719	16.150
5.6657	15.846
5.6596	15.497
5.6534	15.125
5.6472	14.755
5.6411	14.409
5.6349	14.100
5.6288	13.830
5.6227	13.590
5.6166	13.369
5.6106	13.152
5.6045	12.934
5.5984	12.716
5.5924	12.509
5.5864	12.330
5.5804	12.199
5.5744	12.131
5.5684	12.141
5.5624	12.231
5.5564	12.400
5.5505	12.637
5.5445	12.926
5.5386	13.249
5.5327	13.588
5.5268	13.928
5.5209	14.257
5.5151	14.567
5.5092	14.856
5.5033	15.122
5.4975	15.368
5.4917	15.597
5.4859	15.813
5.4801	16.020
5.4743	16.218
5.4685	16.404
5.4628	16.566
5.4570	16.691
5.4513	16.759
5.4455	16.755
5.4398	16.670
5.4341	16.501
5.4284	16.254
5.4228	15.938
5.4171	15.563
5.4114	15.136
5.4058	14.666
5.4002	14.163
5.3945	13.640
5.3889	13.116
5.3833	12.612
5.3778	12.151
5.3722	11.753
5.3666	11.432
5.3611	11.195
5.3555	11.044
5.3500	10.971
5.3445	10.967
5.3390	11.016
5.3335	11.102
5.3280	11.211
5.3225	11.331
5.3171	11.457
5.3116	11.590
5.3062	11.733
5.3008	11.897
5.2954	12.088
5.2900	12.315
5.2846	12.582
5.2792	12.890
5.2738	13.239
5.2684	13.628
5.2631	14.054
5.2578	14.519
5.2524	15.020
5.2471	15.554
5.2418	16.116
5.2365	16.691
5.2312	17.263
5.2260	17.811
5.2207	18.315
5.2154	18.760
5.2102	19.134
5.2050	19.434
5.1998	19.661
5.1945	19.824
5.1893	19.933
5.1842	19.999
5.1790	20.034
5.1738	20.048
5.1686	20.047
5.1635	20.038
5.1584	20.025
5.1532	20.013
5.1481	20.005
5.1430	20.008
5.1379	20.023
5.1328	20.051
5.1277	20.088
5.1227	20.125
5.1176	20.151
5.1126	20.153
5.1075	20.122
5.1025	20.051
5.0975	19.942
5.0925	19.802
5.0875	19.645
5.0825	19.485
5.0775	19.340
5.0726	19.219
5.0676	19.131
5.0627	19.073
5.0577	19.042
5.0528	19.027
5.0479	19.019
5.0430	19.009
5.0380	18.992
5.0332	18.969
5.0283	18.942
5.0234	18.922
5.0185	18.916
5.0137	18.933
5.0088	18.981
5.0040	19.067
4.9992	19.198
4.9944	19.381
4.9896	19.624
4.9848	19.934
4.9800	20.310
4.9752	20.744
4.9704	21.218
4.9657	21.708
4.9609	22.183
4.9562	22.620
4.9514	23.002
4.9467	23.327
4.9420	23.604
4.9373	23.858
4.9326	24.118
4.9279	24.416
4.9232	24.777
4.9186	25.218
4.9139	25.740
4.9092	26.335
4.9046	26.982
4.9000	27.655
4.8953	28.326
4.8907	28.970
4.8861	29.568
4.8815	30.110
4.8769	30.590
4.8723	31.013
4.8678	31.384
4.8632	31.711
4.8586	32.002
4.8541	32.265
4.8495	32.505
4.8450	32.728
4.8405	32.937
4.8360	33.135
4.8315	33.323
4.8270	33.499
4.8225	33.662
4.8180	33.813
4.8135	33.952
4.8090	34.079
4.8046	34.198
4.8001	34.312
4.7957	34.423
4.7913	34.536
4.7868	34.653
4.7824	34.776
4.7780	34.906
4.7736	35.043
4.7692	35.184
4.7648	35.327
4.7605	35.470
4.7561	35.610
4.7517	35.745
4.7474	35.873
4.7431	35.995
4.7387	36.109
4.7344	36.214
4.7301	36.310
4.7258	36.394
4.7215	36.464
4.7172	36.514
4.7129	36.541
4.7086	36.543
4.7043	36.522
4.7000	36.485
4.6958	36.442
4.6915	36.410
4.6873	36.403
4.6831	36.434
4.6788	36.512
4.6746	36.635
4.6704	36.798
4.6662	36.990
4.6620	37.200
4.6578	37.419
4.6536	37.639
4.6495	37.858
4.6453	38.072
4.6411	38.281
4.6370	38.485
4.6328	38.681
4.6287	38.869
4.6246	39.050
4.6205	39.221
4.6163	39.383
4.6122	39.536
4.6081	39.679
4.6040	39.814
4.6000	39.939
4.5959	40.056
4.5918	40.164
4.5877	40.263
4.5837	40.353
4.5796	40.435
4.5756	40.508
4.5716	40.575
4.5675	40.636
4.5635	40.689
4.5595	40.733
4.5555	40.767
4.5515	40.789
4.5475	40.796
4.5435	40.788
4.5395	40.766
4.5356	40.730
4.5316	40.680
4.5276	40.614
4.5237	40.532
4.5197	40.433
4.5158	40.320
4.5119	40.197
4.5080	40.071
4.5040	39.952
4.5001	39.847
4.4962	39.760
4.4923	39.694
4.4884	39.646
4.4846	39.614
4.4807	39.599
4.4768	39.603
4.4730	39.628
4.4691	39.680
4.4652	39.763
4.4614	39.875
4.4576	40.011
4.4537	40.161
4.4499	40.315
4.4461	40.465
4.4423	40.605
4.4385	40.736
4.4347	40.860
4.4309	40.983
4.4271	41.108
4.4233	41.238
4.4196	41.374
4.4158	41.516
4.4120	41.662
4.4083	41.812
4.4045	41.964
4.4008	42.117
4.3971	42.271
4.3934	42.424
4.3896	42.576
4.3859	42.727
4.3822	42.874
4.3785	43.018
4.3748	43.159
4.3711	43.294
4.3674	43.424
4.3638	43.547
4.3601	43.662
4.3564	43.769
4.3528	43.867
4.3491	43.957
4.3455	44.038
4.3418	44.111
4.3382	44.175
4.3346	44.230
4.3310	44.277
4.3273	44.314
4.3237	44.343
4.3201	44.364
4.3165	44.377
4.3129	44.384
4.3094	44.389
4.3058	44.391
4.3022	44.393
4.2986	44.395
4.2951	44.398
4.2915	44.402
4.2880	44.405
4.2844	44.408
4.2809	44.414
4.2774	44.426
4.2738	44.449
4.2703	44.487
4.2668	44.541
4.2633	44.608
4.2598	44.684
4.2563	44.762
4.2528	44.833
4.2493	44.894
4.2458	44.943
4.2424	44.982
4.2389	45.015
4.2354	45.047
4.2320	45.081
4.2285	45.117
4.2251	45.155
4.2216	45.194
4.2182	45.231
4.2148	45.263
4.2113	45.292
4.2079	45.318
4.2045	45.342
4.2011	45.367
4.1977	45.395
4.1943	45.428
4.1909	45.466
4.1875	45.508
4.1841	45.553
4.1808	45.599
4.1774	45.645
4.1740	45.689
4.1707	45.730
4.1673	45.768
4.1640	45.803
4.1606	45.836
4.1573	45.869
4.1540	45.901
4.1506	45.932
4.1473	45.964
4.1440	45.995
4.1407	46.025
4.1374	46.054
4.1341	46.083
4.1308	46.111
4.1275	46.139
4.1242	46.167
4.1209	46.195
4.1177	46.223
4.1144	46.250
4.1111	46.276
4.1079	46.299
4.1046	46.320
4.1014	46.338
4.0981	46.352
4.0949	46.361
4.0917	46.366
4.0884	46.367
4.0852	46.363
4.0820	46.357
4.0788	46.347
4.0756	46.335
4.0724	46.319
4.0692	46.298
4.0660	46.270
4.0628	46.231
4.0596	46.180
4.0565	46.112
4.0533	46.025
4.0501	45.914
4.0470	45.777
4.0438	45.613
4.0406	45.423
4.0375	45.213
4.0344	44.990
4.0312	44.764
4.0281	44.546
4.0250	44.344
4.0218	44.165
4.0187	44.009
4.0156	43.870
4.0125	43.736
4.0094	43.595
4.0063	43.435
4.0032	43.247
4.0001	43.030
3.9970	42.789
3.9940	42.536
3.9909	42.286
3.9878	42.057
3.9847	41.864
3.9817	41.716
3.9786	41.621
3.9756	41.580
3.9725	41.589
3.9695	41.645
3.9665	41.744
3.9634	41.883
3.9604	42.059
3.9574	42.270
3.9544	42.513
3.9513	42.779
3.9483	43.058
3.9453	43.336
3.9423	43.597
3.9393	43.829
3.9363	44.021
3.9333	44.171
3.9304	44.282
3.9274	44.358
3.9244	44.410
3.9214	44.444
3.9185	44.466
3.9155	44.480
3.9126	44.487
3.9096	44.488
3.9067	44.484
3.9037	44.478
3.9008	44.469
3.8979	44.459
3.8949	44.450
3.8920	44.441
3.8891	44.432
3.8862	44.423
3.8833	44.412
3.8804	44.399
3.8775	44.382
3.8746	44.363
3.8717	44.342
3.8688	44.321
3.8659	44.301
3.8630	44.284
3.8601	44.270
3.8573	44.260
3.8544	44.254
3.8515	44.253
3.8487	44.257
3.8458	44.269
3.8430	44.288
3.8401	44.316
3.8373	44.352
3.8344	44.395
3.8316	44.444
3.8288	44.497
3.8259	44.553
3.8231	44.610
3.8203	44.669
3.8175	44.726
3.8147	44.781
3.8119	44.834
3.8091	44.883
3.8063	44.929
3.8035	44.970
3.8007	45.006
3.7979	45.035
3.7951	45.057
3.7924	45.069
3.7896	45.070
3.7868	45.060
3.7841	45.039
3.7813	45.009
3.7785	44.971
3.7758	44.925
3.7730	44.874
3.7703	44.818
3.7676	44.759
3.7648	44.697
3.7621	44.634
3.7594	44.570
3.7566	44.505
3.7539	44.440
3.7512	44.375
3.7485	44.311
3.7458	44.248
3.7431	44.187
3.7404	44.127
3.7377	44.069
3.7350	44.013
3.7323	43.957
3.7296	43.901
3.7269	43.846
3.7242	43.791
3.7216	43.735
3.7189	43.681
3.7162	43.628
3.7136	43.576
3.7109	43.523
3.7083	43.471
3.7056	43.417
3.7030	43.362
3.7003	43.305
3.6977	43.247
3.6950	43.188
3.6924	43.128
3.6898	43.067
3.6872	43.006
3.6845	42.944
3.6819	42.882
3.6793	42.820
3.6767	42.756
3.6741	42.691
3.6715	42.623
3.6689	42.551
3.6663	42.475
3.6637	42.396
3.6611	42.315
3.6585	42.233
3.6560	42.150
3.6534	42.068
3.6508	41.987
3.6482	41.905
3.6457	41.822
3.6431	41.737
3.6406	41.648
3.6380	41.555
3.6355	41.458
3.6329	41.357
3.6304	41.253
3.6278	41.147
3.6253	41.040
3.6227	40.932
3.6202	40.825
3.6177	40.717
3.6152	40.609
3.6127	40.500
3.6101	40.390
3.6076	40.277
3.6051	40.161
3.6026	40.041
3.6001	39.916
3.5976	39.788
3.5951	39.656
3.5926	39.520
3.5901	39.381
3.5876	39.237
3.5852	39.090
3.5827	38.939
3.5802	38.786
3.5777	38.631
3.5753	38.474
3.5728	38.318
3.5704	38.159
3.5679	38.001
3.5654	37.841
3.5630	37.682
3.5605	37.526
3.5581	37.374
3.5557	37.230
3.5532	37.093
3.5508	36.965
3.5484	36.845
3.5459	36.729
3.5435	36.616
3.5411	36.503
3.5387	36.388
3.5363	36.269
3.5338	36.147
3.5314	36.022
3.5290	35.894
3.5266	35.763
3.5242	35.631
3.5218	35.496
3.5195	35.360
3.5171	35.223
3.5147	35.086
3.5123	34.952
3.5099	34.823
3.5075	34.702
3.5052	34.589
3.5028	34.487
3.5004	34.396
3.4981	34.312
3.4957	34.234
3.4934	34.156
3.4910	34.077
3.4887	33.993
3.4863	33.905
3.4840	33.816
3.4816	33.730
3.4793	33.654
3.4770	33.591
3.4746	33.545
3.4723	33.514
3.4700	33.497
3.4677	33.486
3.4653	33.477
3.4630	33.460
3.4607	33.432
3.4584	33.389
3.4561	33.331
3.4538	33.258
3.4515	33.173
3.4492	33.079
3.4469	32.980
3.4446	32.878
3.4423	32.774
3.4400	32.672
3.4378	32.570
3.4355	32.470
3.4332	32.368
3.4309	32.262
3.4287	32.149
3.4264	32.029
3.4241	31.898
3.4219	31.760
3.4196	31.618
3.4174	31.473
3.4151	31.332
3.4129	31.196
3.4106	31.065
3.4084	30.937
3.4061	30.812
3.4039	30.687
3.4017	30.560
3.3994	30.431
3.3972	30.299
3.3950	30.164
3.3928	30.029
3.3906	29.891
3.3883	29.752
3.3861	29.611
3.3839	29.468
3.3817	29.326
3.3795	29.183
3.3773	29.042
3.3751	28.902
3.3729	28.764
3.3707	28.626
3.3685	28.487
3.3663	28.345
3.3641	28.201
3.3620	28.053
3.3598	27.904
3.3576	27.758
3.3554	27.617
3.3533	27.488
3.3511	27.374
3.3489	27.280
3.3468	27.207
3.3446	27.152
3.3425	27.111
3.3403	27.076
3.3382	27.040
3.3360	26.997
3.3339	26.941
3.3317	26.871
3.3296	26.788
3.3274	26.695
3.3253	26.595
3.3232	26.492
3.3210	26.386
3.3189	26.281
3.3168	26.176
3.3147	26.071
3.3126	25.968
3.3104	25.865
3.3083	25.765
3.3062	25.666
3.3041	25.568
3.3020	25.471
3.2999	25.373
3.2978	25.276
3.2957	25.179
3.2936	25.083
3.2915	24.988
3.2894	24.896
3.2874	24.806
3.2853	24.721
3.2832	24.639
3.2811	24.561
3.2790	24.487
3.2770	24.418
3.2749	24.354
3.2728	24.293
3.2708	24.236
3.2687	24.183
3.2666	24.130
3.2646	24.079
3.2625	24.026
3.2605	23.971
3.2584	23.915
3.2564	23.858
3.2543	23.800
3.2523	23.740
3.2503	23.678
3.2482	23.612
3.2462	23.543
3.2442	23.467
3.2421	23.387
3.2401	23.302
3.2381	23.213
3.2361	23.121
3.2340	23.027
3.2320	22.931
3.2300	22.831
3.2280	22.728
3.2260	22.621
3.2240	22.512
3.2220	22.403
3.2200	22.294
3.2180	22.188
3.2160	22.084
3.2140	21.983
3.2120	21.882
