Name: Arkosic Sandstone 
Type:  Rocks
Class:  Sedimentary
Subclass: Sandstone 
Particle Size:  0 - 75 Micrometers
Sample No.:  sandstone.1
Owner:  JHU
Wavelength Range:  All
Origin:  Sample No. 362,  The Hunt and Salisbury Collection at the U.S. 
Geological Survey, Denver, Co.
Description: Sample is moderately sorted fine medium-grained rock 
with slight porosity. Well-rounded to subrounded quartz grains have 
fluid inclusions and ferruginous staining, and are cemented with 
overgrowths of chalcedony. A trace of microcline and regions of 
concentrated carbonaceous granules and/or opaques on the grains 
are present. Secondary carbonate crystallites exist in some pores.
Measurement:  Directional (10 Degree) Hemispherical Reflectance
First Column:  X
Second Column:  Y  
X Units:  Wavelength (micrometers)
Y Units:  Reflectance (percent)
First X Value: 14.0112
Last X Value:  0.4
Number of X Values: 2844
Additional Information:  None

14.983	6.7391
14.940	6.6957
14.897	6.6808
14.854	6.5472
14.812	6.3940
14.770	6.1248
14.728	5.7667
14.686	5.4247
14.645	4.9544
14.603	4.3939
14.562	3.8774
14.521	3.2818
14.481	2.6594
14.441	2.0930
14.400	1.7529
14.361	1.6265
14.321	1.7091
14.281	2.0800
14.242	2.6940
14.203	3.4322
14.164	4.1436
14.126	4.7948
14.087	5.4262
14.049	5.9583
14.011	6.4118
13.973	6.8279
13.936	7.1940
13.899	7.5412
13.861	7.8126
13.824	7.9982
13.788	8.1278
13.751	8.1867
13.715	8.2080
13.679	8.1815
13.643	8.1254
13.607	8.0880
13.571	8.0560
13.536	7.9828
13.500	7.9099
13.465	7.8478
13.430	7.7692
13.396	7.6352
13.361	7.4611
13.327	7.2674
13.293	7.0604
13.259	6.8011
13.225	6.5006
13.191	6.1522
13.158	5.7527
13.124	5.3085
13.091	4.8486
13.058	4.4083
13.026	4.0358
12.993	3.7199
12.960	3.4641
12.928	3.2695
12.896	3.1314
12.864	3.0317
12.832	2.9533
12.800	2.8522
12.769	2.7324
12.737	2.5953
12.706	2.4667
12.675	2.3772
12.644	2.3360
12.614	2.3324
12.583	2.3539
12.552	2.3539
12.522	2.3168
12.492	2.2204
12.462	2.0530
12.432	1.8121
12.402	1.5317
12.373	1.2771
12.343	1.1052
12.314	1.0297
12.285	1.0827
12.256	1.2629
12.227	1.5632
12.198	1.9372
12.169	2.3639
12.141	2.8432
12.113	3.3509
12.084	3.8523
12.056	4.3434
12.028	4.8178
12.000	5.2824
11.973	5.7262
11.945	6.1466
11.918	6.5359
11.890	6.9060
11.863	7.2563
11.836	7.5949
11.809	7.9300
11.782	8.2521
11.755	8.5649
11.729	8.8676
11.702	9.1243
11.676	9.3298
11.650	9.4738
11.624	9.5645
11.598	9.6223
11.572	9.6630
11.546	9.6988
11.520	9.7376
11.495	9.7525
11.469	9.7653
11.444	9.7980
11.419	9.8553
11.394	9.9223
11.369	9.9917
11.344	10.051
11.319	10.087
11.294	10.076
11.270	10.037
11.245	9.9832
11.221	9.9074
11.197	9.8075
11.173	9.7042
11.149	9.5953
11.125	9.4786
11.101	9.3485
11.077	9.2143
11.054	9.0736
11.030	8.9194
11.007	8.7733
10.983	8.6573
10.960	8.5739
10.937	8.5315
10.914	8.5173
10.891	8.5315
10.868	8.5540
10.846	8.5640
10.823	8.5670
10.800	8.5699
10.778	8.5739
10.755	8.5779
10.733	8.5566
10.711	8.5076
10.689	8.4477
10.667	8.3887
10.645	8.3397
10.623	8.3151
10.602	8.3172
10.580	8.3523
10.558	8.4034
10.537	8.4583
10.516	8.5145
10.494	8.5604
10.473	8.5720
10.452	8.5528
10.431	8.5067
10.410	8.4415
10.389	8.3650
10.368	8.2909
10.348	8.2199
10.327	8.1408
10.306	8.0475
10.286	7.9471
10.266	7.8322
10.245	7.7034
10.225	7.5743
10.205	7.4419
10.185	7.2847
10.165	7.0952
10.145	6.8790
10.125	6.6642
10.106	6.4601
10.086	6.2875
10.066	6.1404
10.047	6.0071
10.027	5.8820
10.008	5.7714
9.9887	5.6717
9.9695	5.5971
9.9504	5.5413
9.9313	5.5029
9.9123	5.4614
9.8934	5.4162
9.8746	5.3677
9.8558	5.3177
9.8371	5.2710
9.8185	5.2182
9.7999	5.1524
9.7814	5.0870
9.7630	5.0226
9.7447	4.9539
9.7264	4.8822
9.7082	4.8149
9.6900	4.7581
9.6719	4.7041
9.6539	4.6288
9.6360	4.5672
9.6181	4.5438
9.6003	4.5495
9.5825	4.5805
9.5649	4.6376
9.5472	4.7171
9.5297	4.8036
9.5122	4.8741
9.4948	4.9760
9.4774	5.1313
9.4601	5.3352
9.4429	5.6047
9.4257	5.9490
9.4086	6.3595
9.3916	6.8113
9.3746	7.2693
9.3577	7.6956
9.3408	8.0389
9.3240	8.2767
9.3073	8.4110
9.2906	8.4363
9.2740	8.3703
9.2574	8.2616
9.2409	8.1375
9.2245	8.0117
9.2081	7.8938
9.1918	7.7927
9.1755	7.6958
9.1593	7.5902
9.1431	7.4765
9.1270	7.3714
9.1110	7.2750
9.0950	7.1864
9.0791	7.1076
9.0632	7.0318
9.0474	6.9515
9.0316	6.8778
9.0159	6.8073
9.0003	6.7459
8.9847	6.7026
8.9691	6.6735
8.9536	6.6486
8.9382	6.6306
8.9228	6.6128
8.9075	6.5887
8.8922	6.5515
8.8770	6.5160
8.8618	6.4724
8.8467	6.4099
8.8316	6.3379
8.8166	6.2785
8.8016	6.2294
8.7867	6.1878
8.7718	6.1473
8.7570	6.1063
8.7422	6.0464
8.7275	5.9614
8.7129	5.8520
8.6982	5.7042
8.6837	5.4816
8.6692	5.1929
8.6547	4.8836
8.6403	4.6482
8.6259	4.5675
8.6116	4.6679
8.5973	4.9189
8.5830	5.2443
8.5688	5.5510
8.5547	5.7859
8.5406	5.9434
8.5266	6.0563
8.5126	6.1411
8.4986	6.2081
8.4847	6.2571
8.4708	6.2931
8.4570	6.3201
8.4432	6.3523
8.4295	6.4023
8.4158	6.4565
8.4022	6.4930
8.3886	6.5382
8.3750	6.6036
8.3615	6.6860
8.3481	6.7739
8.3347	6.8845
8.3213	7.0330
8.3079	7.2049
8.2946	7.3768
8.2814	7.5729
8.2682	7.8071
8.2550	8.0690
8.2419	8.3506
8.2288	8.6542
8.2158	8.9722
8.2028	9.2815
8.1898	9.5446
8.1769	9.7301
8.1640	9.8184
8.1512	9.7994
8.1384	9.6746
8.1256	9.4620
8.1129	9.1792
8.1002	8.8633
8.0876	8.5332
8.0750	8.1967
8.0624	7.8722
8.0499	7.5682
8.0374	7.2807
8.0250	7.0126
8.0126	6.7466
8.0002	6.4838
7.9879	6.2174
7.9756	5.9408
7.9634	5.6537
7.9512	5.3606
7.9390	5.0532
7.9268	4.7394
7.9147	4.4247
7.9027	4.1310
7.8906	3.8658
7.8786	3.6188
7.8667	3.3948
7.8548	3.2055
7.8429	3.0367
7.8310	2.8887
7.8192	2.7691
7.8075	2.6810
7.7957	2.6114
7.7840	2.5519
7.7723	2.5027
7.7607	2.4586
7.7491	2.4089
7.7375	2.3442
7.7260	2.2734
7.7145	2.2031
7.7031	2.1257
7.6916	2.0477
7.6802	1.9762
7.6689	1.9083
7.6575	1.8356
7.6462	1.7541
7.6350	1.6814
7.6238	1.6281
7.6126	1.5722
7.6014	1.5151
7.5903	1.4749
7.5792	1.4526
7.5681	1.4308
7.5571	1.4060
7.5461	1.3877
7.5351	1.3785
7.5242	1.3520
7.5133	1.3210
7.5024	1.3084
7.4916	1.3082
7.4807	1.3049
7.4700	1.3037
7.4592	1.3039
7.4485	1.3044
7.4378	1.3086
7.4272	1.3290
7.4165	1.3565
7.4059	1.3740
7.3954	1.3856
7.3848	1.3932
7.3743	1.3873
7.3639	1.3818
7.3534	1.3880
7.3430	1.4105
7.3326	1.4377
7.3222	1.4578
7.3119	1.4806
7.3016	1.5050
7.2914	1.5215
7.2811	1.5492
7.2709	1.5895
7.2607	1.6463
7.2506	1.7179
7.2404	1.7842
7.2303	1.8436
7.2203	1.8967
7.2102	1.9364
7.2002	1.9713
7.1902	1.9992
7.1803	2.0279
7.1703	2.0622
7.1604	2.1013
7.1506	2.1519
7.1407	2.2225
7.1309	2.3078
7.1211	2.3978
7.1113	2.4859
7.1016	2.5664
7.0919	2.6234
7.0822	2.6715
7.0725	2.7113
7.0629	2.7464
7.0533	2.7793
7.0437	2.8172
7.0341	2.8652
7.0246	2.9199
7.0151	2.9763
7.0056	3.0507
6.9962	3.1276
6.9867	3.2067
6.9773	3.2903
6.9679	3.3742
6.9586	3.4559
6.9493	3.5361
6.9400	3.6129
6.9307	3.6815
6.9214	3.7379
6.9122	3.7853
6.9030	3.8213
6.8938	3.8345
6.8847	3.8350
6.8755	3.8409
6.8664	3.8511
6.8573	3.8599
6.8483	3.8793
6.8393	3.9155
6.8302	3.9503
6.8213	3.9676
6.8123	3.9837
6.8034	3.9956
6.7944	3.9901
6.7855	3.9785
6.7767	3.9678
6.7678	3.9508
6.7590	3.9139
6.7502	3.8779
6.7414	3.8634
6.7327	3.8537
6.7239	3.8511
6.7152	3.8655
6.7065	3.8961
6.6979	3.9435
6.6892	4.0192
6.6806	4.1381
6.6720	4.2842
6.6634	4.4261
6.6549	4.5424
6.6464	4.6281
6.6378	4.6887
6.6294	4.7325
6.6209	4.7598
6.6124	4.7789
6.6040	4.7884
6.5956	4.7756
6.5872	4.7482
6.5789	4.7219
6.5705	4.7159
6.5622	4.7411
6.5539	4.8036
6.5456	4.9291
6.5374	5.1448
6.5292	5.4638
6.5209	5.8607
6.5128	6.3019
6.5046	6.7869
6.4964	7.2913
6.4883	7.7848
6.4802	8.2578
6.4721	8.7103
6.4640	9.1247
6.4560	9.4662
6.4480	9.7251
6.4399	9.8939
6.4320	9.9775
6.4240	10.001
6.4160	9.9808
6.4081	9.9138
6.4002	9.7840
6.3923	9.5941
6.3844	9.3504
6.3766	9.0419
6.3687	8.6919
6.3609	8.3442
6.3531	8.0200
6.3454	7.7174
6.3376	7.4254
6.3299	7.1291
6.3221	6.8295
6.3144	6.5276
6.3068	6.2212
6.2991	5.9242
6.2914	5.6507
6.2838	5.3928
6.2762	5.1529
6.2686	4.9326
6.2611	4.7297
6.2535	4.5549
6.2460	4.4019
6.2385	4.2714
6.2310	4.1781
6.2235	4.1109
6.2160	4.0702
6.2086	4.0642
6.2011	4.0931
6.1937	4.1781
6.1863	4.3136
6.1790	4.5014
6.1716	4.7685
6.1643	5.1100
6.1570	5.4989
6.1496	5.9228
6.1424	6.3642
6.1351	6.8058
6.1278	7.2219
6.1206	7.6079
6.1134	7.9781
6.1062	8.3371
6.0990	8.6639
6.0918	8.9599
6.0847	9.2259
6.0776	9.4383
6.0704	9.5700
6.0633	9.6557
6.0563	9.7248
6.0492	9.7885
6.0421	9.8565
6.0351	9.9205
6.0281	9.9690
6.0211	9.9811
6.0141	9.9219
6.0071	9.8110
6.0002	9.6590
5.9932	9.4636
5.9863	9.2500
5.9794	9.0222
5.9725	8.7904
5.9657	8.5798
5.9588	8.3762
5.9520	8.2066
5.9451	8.1164
5.9383	8.1088
5.9315	8.2085
5.9247	8.4280
5.9180	8.7305
5.9112	9.1020
5.9045	9.5008
5.8978	9.9183
5.8911	10.381
5.8844	10.858
5.8777	11.354
5.8711	11.868
5.8644	12.380
5.8578	12.892
5.8512	13.387
5.8446	13.840
5.8380	14.272
5.8314	14.693
5.8249	15.116
5.8184	15.549
5.8118	15.992
5.8053	16.439
5.7988	16.881
5.7923	17.290
5.7859	17.637
5.7794	17.968
5.7730	18.300
5.7666	18.625
5.7602	18.943
5.7538	19.261
5.7474	19.577
5.7410	19.864
5.7347	20.087
5.7283	20.255
5.7220	20.379
5.7157	20.441
5.7094	20.425
5.7031	20.325
5.6969	20.122
5.6906	19.799
5.6844	19.358
5.6782	18.788
5.6719	18.115
5.6657	17.353
5.6596	16.518
5.6534	15.653
5.6472	14.801
5.6411	14.008
5.6349	13.315
5.6288	12.729
5.6227	12.253
5.6166	11.873
5.6106	11.562
5.6045	11.311
5.5984	11.102
5.5924	10.926
5.5864	10.795
5.5804	10.715
5.5744	10.695
5.5684	10.745
5.5624	10.873
5.5564	11.066
5.5505	11.302
5.5445	11.576
5.5386	11.888
5.5327	12.217
5.5268	12.565
5.5209	12.941
5.5151	13.336
5.5092	13.736
5.5033	14.146
5.4975	14.551
5.4917	14.941
5.4859	15.306
5.4801	15.654
5.4743	15.986
5.4685	16.275
5.4628	16.493
5.4570	16.620
5.4513	16.619
5.4455	16.472
5.4398	16.157
5.4341	15.683
5.4284	15.081
5.4228	14.371
5.4171	13.566
5.4114	12.685
5.4058	11.766
5.4002	10.846
5.3945	9.9496
5.3889	9.1174
5.3833	8.3911
5.3778	7.7889
5.3722	7.3006
5.3666	6.9150
5.3611	6.6339
5.3555	6.4473
5.3500	6.3388
5.3445	6.2998
5.3390	6.3187
5.3335	6.3753
5.3280	6.4506
5.3225	6.5404
5.3171	6.6434
5.3116	6.7571
5.3062	6.8866
5.3008	7.0446
5.2954	7.2350
5.2900	7.4611
5.2846	7.7403
5.2792	8.0849
5.2738	8.4849
5.2684	8.9353
5.2631	9.4390
5.2578	10.003
5.2524	10.631
5.2471	11.322
5.2418	12.082
5.2365	12.905
5.2312	13.755
5.2260	14.590
5.2207	15.365
5.2154	16.044
5.2102	16.598
5.2050	17.007
5.1998	17.275
5.1945	17.424
5.1893	17.474
5.1842	17.449
5.1790	17.381
5.1738	17.291
5.1686	17.196
5.1635	17.101
5.1584	17.001
5.1532	16.901
5.1481	16.805
5.1430	16.713
5.1379	16.639
5.1328	16.590
5.1277	16.570
5.1227	16.570
5.1176	16.572
5.1126	16.551
5.1075	16.482
5.1025	16.341
5.0975	16.129
5.0925	15.860
5.0875	15.559
5.0825	15.265
5.0775	15.002
5.0726	14.787
5.0676	14.626
5.0627	14.515
5.0577	14.447
5.0528	14.408
5.0479	14.392
5.0430	14.386
5.0380	14.368
5.0332	14.330
5.0283	14.277
5.0234	14.227
5.0185	14.200
5.0137	14.217
5.0088	14.289
5.0040	14.411
4.9992	14.574
4.9944	14.792
4.9896	15.094
4.9848	15.493
4.9800	16.010
4.9752	16.653
4.9704	17.394
4.9657	18.183
4.9609	18.961
4.9562	19.679
4.9514	20.313
4.9467	20.840
4.9420	21.275
4.9373	21.676
4.9326	22.098
4.9279	22.605
4.9232	23.257
4.9186	24.114
4.9139	25.208
4.9092	26.517
4.9046	27.990
4.9000	29.576
4.8953	31.196
4.8907	32.776
4.8861	34.261
4.8815	35.629
4.8769	36.876
4.8723	37.991
4.8678	38.983
4.8632	39.883
4.8586	40.703
4.8541	41.450
4.8495	42.131
4.8450	42.750
4.8405	43.324
4.8360	43.852
4.8315	44.343
4.8270	44.811
4.8225	45.251
4.8180	45.669
4.8135	46.069
4.8090	46.442
4.8046	46.797
4.8001	47.134
4.7957	47.455
4.7913	47.763
4.7868	48.059
4.7824	48.348
4.7780	48.628
4.7736	48.886
4.7692	49.124
4.7648	49.347
4.7605	49.548
4.7561	49.728
4.7517	49.888
4.7474	50.030
4.7431	50.150
4.7387	50.240
4.7344	50.300
4.7301	50.331
4.7258	50.323
4.7215	50.268
4.7172	50.164
4.7129	49.996
4.7086	49.746
4.7043	49.410
4.7000	49.000
4.6958	48.557
4.6915	48.149
4.6873	47.860
4.6831	47.755
4.6788	47.846
4.6746	48.119
4.6704	48.531
4.6662	49.018
4.6620	49.524
4.6578	50.018
4.6536	50.491
4.6495	50.945
4.6453	51.387
4.6411	51.828
4.6370	52.266
4.6328	52.685
4.6287	53.064
4.6246	53.393
4.6205	53.673
4.6163	53.910
4.6122	54.118
4.6081	54.305
4.6040	54.478
4.6000	54.632
4.5959	54.758
4.5918	54.854
4.5877	54.927
4.5837	54.974
4.5796	54.989
4.5756	54.976
4.5716	54.941
4.5675	54.872
4.5635	54.771
4.5595	54.633
4.5555	54.453
4.5515	54.221
4.5475	53.941
4.5435	53.615
4.5395	53.242
4.5356	52.821
4.5316	52.367
4.5276	51.880
4.5237	51.340
4.5197	50.745
4.5158	50.114
4.5119	49.460
4.5080	48.800
4.5040	48.178
4.5001	47.638
4.4962	47.200
4.4923	46.850
4.4884	46.578
4.4846	46.365
4.4807	46.179
4.4768	46.012
4.4730	45.887
4.4691	45.834
4.4652	45.880
4.4614	46.033
4.4576	46.284
4.4537	46.591
4.4499	46.908
4.4461	47.208
4.4423	47.474
4.4385	47.706
4.4347	47.925
4.4309	48.157
4.4271	48.415
4.4233	48.688
4.4196	48.973
4.4158	49.273
4.4120	49.589
4.4083	49.912
4.4045	50.247
4.4008	50.599
4.3971	50.966
4.3934	51.336
4.3896	51.713
4.3859	52.095
4.3822	52.485
4.3785	52.881
4.3748	53.271
4.3711	53.645
4.3674	53.999
4.3638	54.339
4.3601	54.662
4.3564	54.958
4.3528	55.232
4.3491	55.484
4.3455	55.706
4.3418	55.892
4.3382	56.048
4.3346	56.184
4.3310	56.298
4.3273	56.388
4.3237	56.451
4.3201	56.481
4.3165	56.489
4.3129	56.470
4.3094	56.429
4.3058	56.378
4.3022	56.332
4.2986	56.292
4.2951	56.257
4.2915	56.233
4.2880	56.237
4.2844	56.255
4.2809	56.282
4.2774	56.327
4.2738	56.401
4.2703	56.507
4.2668	56.640
4.2633	56.799
4.2598	56.969
4.2563	57.120
4.2528	57.241
4.2493	57.332
4.2458	57.394
4.2424	57.435
4.2389	57.465
4.2354	57.497
4.2320	57.532
4.2285	57.579
4.2251	57.643
4.2216	57.711
4.2182	57.780
4.2148	57.838
4.2113	57.877
4.2079	57.899
4.2045	57.918
4.2011	57.945
4.1977	57.982
4.1943	58.030
4.1909	58.105
4.1875	58.206
4.1841	58.316
4.1808	58.437
4.1774	58.573
4.1740	58.702
4.1707	58.819
4.1673	58.927
4.1640	59.026
4.1606	59.118
4.1573	59.210
4.1540	59.313
4.1506	59.415
4.1473	59.507
4.1440	59.604
4.1407	59.705
4.1374	59.797
4.1341	59.890
4.1308	60.001
4.1275	60.125
4.1242	60.239
4.1209	60.348
4.1177	60.460
4.1144	60.566
4.1111	60.665
4.1079	60.763
4.1046	60.864
4.1014	60.967
4.0981	61.070
4.0949	61.166
4.0917	61.253
4.0884	61.338
4.0852	61.422
4.0820	61.493
4.0788	61.553
4.0756	61.609
4.0724	61.657
4.0692	61.687
4.0660	61.693
4.0628	61.687
4.0596	61.677
4.0565	61.661
4.0533	61.636
4.0501	61.601
4.0470	61.553
4.0438	61.500
4.0406	61.434
4.0375	61.358
4.0344	61.282
4.0312	61.204
4.0281	61.120
4.0250	61.020
4.0218	60.911
4.0187	60.796
4.0156	60.663
4.0125	60.501
4.0094	60.310
4.0063	60.103
4.0032	59.889
4.0001	59.667
3.9970	59.457
3.9940	59.256
3.9909	59.075
3.9878	58.931
3.9847	58.834
3.9817	58.781
3.9786	58.772
3.9756	58.804
3.9725	58.866
3.9695	58.947
3.9665	59.060
3.9634	59.214
3.9604	59.406
3.9574	59.619
3.9544	59.848
3.9513	60.084
3.9483	60.321
3.9453	60.539
3.9423	60.729
3.9393	60.889
3.9363	61.015
3.9333	61.103
3.9304	61.155
3.9274	61.192
3.9244	61.233
3.9214	61.273
3.9185	61.317
3.9155	61.359
3.9126	61.384
3.9096	61.393
3.9067	61.374
3.9037	61.344
3.9008	61.306
3.8979	61.270
3.8949	61.246
3.8920	61.215
3.8891	61.170
3.8862	61.127
3.8833	61.081
3.8804	61.028
3.8775	60.969
3.8746	60.915
3.8717	60.871
3.8688	60.825
3.8659	60.775
3.8630	60.733
3.8601	60.702
3.8573	60.685
3.8544	60.675
3.8515	60.662
3.8487	60.650
3.8458	60.644
3.8430	60.640
3.8401	60.636
3.8373	60.647
3.8344	60.667
3.8316	60.686
3.8288	60.702
3.8259	60.711
3.8231	60.715
3.8203	60.711
3.8175	60.703
3.8147	60.695
3.8119	60.672
3.8091	60.650
3.8063	60.642
3.8035	60.628
3.8007	60.609
3.7979	60.586
3.7951	60.557
3.7924	60.509
3.7896	60.442
3.7868	60.372
3.7841	60.298
3.7813	60.215
3.7785	60.135
3.7758	60.050
3.7730	59.966
3.7703	59.879
3.7676	59.788
3.7648	59.698
3.7621	59.601
3.7594	59.501
3.7566	59.410
3.7539	59.317
3.7512	59.225
3.7485	59.140
3.7458	59.055
3.7431	58.977
3.7404	58.909
3.7377	58.853
3.7350	58.809
3.7323	58.775
3.7296	58.739
3.7269	58.696
3.7242	58.654
3.7216	58.619
3.7189	58.584
3.7162	58.539
3.7136	58.488
3.7109	58.448
3.7083	58.405
3.7056	58.357
3.7030	58.326
3.7003	58.302
3.6977	58.273
3.6950	58.243
3.6924	58.223
3.6898	58.222
3.6872	58.220
3.6845	58.214
3.6819	58.212
3.6793	58.206
3.6767	58.186
3.6741	58.162
3.6715	58.136
3.6689	58.104
3.6663	58.059
3.6637	57.996
3.6611	57.934
3.6585	57.871
3.6560	57.802
3.6534	57.737
3.6508	57.672
3.6482	57.601
3.6457	57.523
3.6431	57.434
3.6406	57.337
3.6380	57.231
3.6355	57.125
3.6329	57.021
3.6304	56.921
3.6278	56.826
3.6253	56.727
3.6227	56.638
3.6202	56.549
3.6177	56.461
3.6152	56.366
3.6127	56.266
3.6101	56.174
3.6076	56.084
3.6051	55.984
3.6026	55.885
3.6001	55.790
3.5976	55.693
3.5951	55.593
3.5926	55.501
3.5901	55.411
3.5876	55.316
3.5852	55.214
3.5827	55.105
3.5802	54.994
3.5777	54.877
3.5753	54.765
3.5728	54.661
3.5704	54.543
3.5679	54.422
3.5654	54.306
3.5630	54.179
3.5605	54.035
3.5581	53.870
3.5557	53.697
3.5532	53.524
3.5508	53.341
3.5484	53.164
3.5459	52.985
3.5435	52.788
3.5411	52.577
3.5387	52.342
3.5363	52.086
3.5338	51.830
3.5314	51.582
3.5290	51.340
3.5266	51.100
3.5242	50.873
3.5218	50.662
3.5195	50.470
3.5171	50.292
3.5147	50.138
3.5123	50.016
3.5099	49.911
3.5075	49.818
3.5052	49.745
3.5028	49.678
3.5004	49.619
3.4981	49.571
3.4957	49.525
3.4934	49.477
3.4910	49.416
3.4887	49.338
3.4863	49.240
3.4840	49.121
3.4816	48.977
3.4793	48.833
3.4770	48.700
3.4746	48.580
3.4723	48.484
3.4700	48.401
3.4677	48.318
3.4653	48.232
3.4630	48.123
3.4607	47.985
3.4584	47.833
3.4561	47.687
3.4538	47.550
3.4515	47.427
3.4492	47.331
3.4469	47.265
3.4446	47.215
3.4423	47.159
3.4400	47.111
3.4378	47.075
3.4355	47.031
3.4332	46.977
3.4309	46.921
3.4287	46.847
3.4264	46.742
3.4241	46.612
3.4219	46.486
3.4196	46.355
3.4174	46.220
3.4151	46.085
3.4129	45.958
3.4106	45.840
3.4084	45.729
3.4061	45.636
3.4039	45.560
3.4017	45.478
3.3994	45.395
3.3972	45.306
3.3950	45.207
3.3928	45.100
3.3906	44.985
3.3883	44.861
3.3861	44.730
3.3839	44.590
3.3817	44.448
3.3795	44.311
3.3773	44.181
3.3751	44.070
3.3729	43.975
3.3707	43.890
3.3685	43.814
3.3663	43.748
3.3641	43.689
3.3620	43.634
3.3598	43.586
3.3576	43.550
3.3554	43.513
3.3533	43.476
3.3511	43.440
3.3489	43.409
3.3468	43.378
3.3446	43.345
3.3425	43.308
3.3403	43.276
3.3382	43.240
3.3360	43.198
3.3339	43.138
3.3317	43.057
3.3296	42.954
3.3274	42.843
3.3253	42.726
3.3232	42.605
3.3210	42.484
3.3189	42.364
3.3168	42.246
3.3147	42.116
3.3126	41.972
3.3104	41.828
3.3083	41.690
3.3062	41.546
3.3041	41.395
3.3020	41.254
3.2999	41.126
3.2978	40.989
3.2957	40.842
3.2936	40.697
3.2915	40.551
3.2894	40.404
3.2874	40.250
3.2853	40.090
3.2832	39.943
3.2811	39.806
3.2790	39.674
3.2770	39.535
3.2749	39.381
3.2728	39.229
3.2708	39.077
3.2687	38.915
3.2666	38.771
3.2646	38.642
3.2625	38.517
3.2605	38.378
3.2584	38.224
3.2564	38.074
3.2543	37.925
3.2523	37.772
3.2503	37.624
3.2482	37.475
3.2462	37.326
3.2442	37.174
3.2421	37.017
3.2401	36.867
3.2381	36.721
3.2361	36.580
3.2340	36.444
3.2320	36.305
3.2300	36.161
3.2280	36.019
3.2260	35.866
3.2240	35.708
3.2220	35.564
3.2200	35.420
3.2180	35.261
3.2160	35.100
3.2140	34.958
