Name: Siltstone
Type:  Rocks
Class:  Sedimentary
Subclass: Siltstone 
Particle Size:  0 - 75 Micrometers
Sample No.:  siltstone.1
Owner:  JHU
Wavelength Range:  All
Origin:  Sample No. 455,  The Hunt and Salisbury Collection at the U.S. 
Geological Survey, Denver, Co.
Description: This is a very fine-grained, lineated/laminated sample 
consisting of brownish clay and very fine quartz particles (about 
equal amounts), along with tiny slivers of another phase (feldspar?). 
There are abundant small flecks and discontinuous lenses of 
carbonaceous and opaque material present as well.

Measurement:  Directional (10 Degree) Hemispherical Reflectance
First Column:  X
Second Column:  Y  
X Units:  Wavelength (micrometers)
Y Units:  Reflectance (percent)
First X Value: 14.0112
Last X Value:  0.4
Number of X Values: 2844
Additional Information:  None

14.983	1.9814
14.940	2.0269
14.897	2.1046
14.854	2.1998
14.812	2.2895
14.770	2.3530
14.728	2.3814
14.686	2.3812
14.645	2.3727
14.603	2.3788
14.562	2.4139
14.521	2.4769
14.481	2.5519
14.441	2.6168
14.400	2.6514
14.361	2.6478
14.321	2.6123
14.281	2.5607
14.242	2.5095
14.203	2.4705
14.164	2.4432
14.126	2.4188
14.087	2.3831
14.049	2.3248
14.011	2.2386
13.973	2.1278
13.936	2.0018
13.899	1.8744
13.861	1.7591
13.824	1.6662
13.788	1.6028
13.751	1.5703
13.715	1.5658
13.679	1.5822
13.643	1.6103
13.607	1.6407
13.571	1.6653
13.536	1.6804
13.500	1.6857
13.465	1.6845
13.430	1.6816
13.396	1.6816
13.361	1.6868
13.327	1.6958
13.293	1.7058
13.259	1.7112
13.225	1.7093
13.191	1.6989
13.158	1.6826
13.124	1.6655
13.091	1.6534
13.058	1.6518
13.026	1.6615
12.993	1.6812
12.960	1.7060
12.928	1.7306
12.896	1.7489
12.864	1.7574
12.832	1.7548
12.800	1.7425
12.769	1.7247
12.737	1.7084
12.706	1.7025
12.675	1.7169
12.644	1.7617
12.614	1.8455
12.583	1.9746
12.552	2.1522
12.522	2.3783
12.492	2.6502
12.462	2.9628
12.432	3.3081
12.402	3.6766
12.373	4.0569
12.343	4.4377
12.314	4.8078
12.285	5.1578
12.256	5.4816
12.227	5.7750
12.198	6.0379
12.169	6.2714
12.141	6.4779
12.113	6.6604
12.084	6.8212
12.056	6.9619
12.028	7.0846
12.000	7.1907
11.973	7.2816
11.945	7.3588
11.918	7.4223
11.890	7.4713
11.863	7.5037
11.836	7.5172
11.809	7.5106
11.782	7.4831
11.755	7.4365
11.729	7.3735
11.702	7.2987
11.676	7.2172
11.650	7.1343
11.624	7.0547
11.598	6.9818
11.572	6.9172
11.546	6.8608
11.520	6.8115
11.495	6.7672
11.469	6.7277
11.444	6.6924
11.419	6.6626
11.394	6.6389
11.369	6.6209
11.344	6.6060
11.319	6.5899
11.294	6.5671
11.270	6.5323
11.245	6.4812
11.221	6.4118
11.197	6.3242
11.173	6.2204
11.149	6.1030
11.125	5.9758
11.101	5.8430
11.077	5.7080
11.054	5.5744
11.030	5.4453
11.007	5.3224
10.983	5.2062
10.960	5.0963
10.937	4.9914
10.914	4.8888
10.891	4.7865
10.868	4.6823
10.846	4.5743
10.823	4.4618
10.800	4.3453
10.778	4.2260
10.755	4.1064
10.733	3.9892
10.711	3.8764
10.689	3.7699
10.667	3.6706
10.645	3.5780
10.623	3.4911
10.602	3.4078
10.580	3.3258
10.558	3.2432
10.537	3.1586
10.516	3.0722
10.494	2.9848
10.473	2.8991
10.452	2.8179
10.431	2.7437
10.410	2.6786
10.389	2.6227
10.368	2.5758
10.348	2.5372
10.327	2.5050
10.306	2.4773
10.286	2.4529
10.266	2.4307
10.245	2.4101
10.225	2.3916
10.205	2.3764
10.185	2.3653
10.165	2.3582
10.145	2.3544
10.125	2.3523
10.106	2.3499
10.086	2.3459
10.066	2.3402
10.047	2.3345
10.027	2.3298
10.008	2.3274
9.9887	2.3272
9.9695	2.3274
9.9504	2.3272
9.9313	2.3243
9.9123	2.3187
9.8934	2.3101
9.8746	2.2985
9.8558	2.2846
9.8371	2.2689
9.8185	2.2533
9.7999	2.2403
9.7814	2.2339
9.7630	2.2367
9.7447	2.2505
9.7264	2.2739
9.7082	2.3028
9.6900	2.3312
9.6719	2.3523
9.6539	2.3615
9.6360	2.3566
9.6181	2.3383
9.6003	2.3094
9.5825	2.2739
9.5649	2.2358
9.5472	2.1972
9.5297	2.1595
9.5122	2.1228
9.4948	2.0868
9.4774	2.0515
9.4601	2.0179
9.4429	1.9874
9.4257	1.9615
9.4086	1.9419
9.3916	1.9286
9.3746	1.9208
9.3577	1.9173
9.3408	1.9156
9.3240	1.9144
9.3073	1.9130
9.2906	1.9109
9.2740	1.9080
9.2574	1.9049
9.2409	1.9007
9.2245	1.8950
9.2081	1.8867
9.1918	1.8753
9.1755	1.8609
9.1593	1.8441
9.1431	1.8263
9.1270	1.8093
9.1110	1.7934
9.0950	1.7787
9.0791	1.7648
9.0632	1.7515
9.0474	1.7394
9.0316	1.7297
9.0159	1.7240
9.0003	1.7231
8.9847	1.7264
8.9691	1.7316
8.9536	1.7361
8.9382	1.7375
8.9228	1.7356
8.9075	1.7311
8.8922	1.7264
8.8770	1.7240
8.8618	1.7257
8.8467	1.7323
8.8316	1.7437
8.8166	1.7598
8.8016	1.7799
8.7867	1.8043
8.7718	1.8320
8.7570	1.8621
8.7422	1.8936
8.7275	1.9246
8.7129	1.9540
8.6982	1.9817
8.6837	2.0077
8.6692	2.0335
8.6547	2.0608
8.6403	2.0908
8.6259	2.1245
8.6116	2.1614
8.5973	2.2010
8.5830	2.2415
8.5688	2.2817
8.5547	2.3203
8.5406	2.3573
8.5266	2.3930
8.5126	2.4285
8.4986	2.4650
8.4847	2.5029
8.4708	2.5422
8.4570	2.5829
8.4432	2.6249
8.4295	2.6682
8.4158	2.7120
8.4022	2.7558
8.3886	2.7980
8.3750	2.8366
8.3615	2.8700
8.3481	2.8970
8.3347	2.9173
8.3213	2.9315
8.3079	2.9408
8.2946	2.9453
8.2814	2.9448
8.2682	2.9386
8.2550	2.9254
8.2419	2.9043
8.2288	2.8759
8.2158	2.8404
8.2028	2.7992
8.1898	2.7535
8.1769	2.7049
8.1640	2.6538
8.1512	2.6009
8.1384	2.5474
8.1256	2.4944
8.1129	2.4435
8.1002	2.3961
8.0876	2.3539
8.0750	2.3175
8.0624	2.2869
8.0499	2.2618
8.0374	2.2408
8.0250	2.2225
8.0126	2.2064
8.0002	2.1924
7.9879	2.1808
7.9756	2.1723
7.9634	2.1678
7.9512	2.1673
7.9390	2.1697
7.9268	2.1742
7.9147	2.1801
7.9027	2.1872
7.8906	2.1972
7.8786	2.2116
7.8667	2.2329
7.8548	2.2630
7.8429	2.3018
7.8310	2.3485
7.8192	2.4004
7.8075	2.4546
7.7957	2.5086
7.7840	2.5605
7.7723	2.6099
7.7607	2.6578
7.7491	2.7061
7.7375	2.7565
7.7260	2.8105
7.7145	2.8683
7.7031	2.9287
7.6916	2.9907
7.6802	3.0533
7.6689	3.1158
7.6575	3.1793
7.6462	3.2444
7.6350	3.3128
7.6238	3.3843
7.6126	3.4589
7.6014	3.5357
7.5903	3.6140
7.5792	3.6943
7.5681	3.7765
7.5571	3.8610
7.5461	3.9477
7.5351	4.0356
7.5242	4.1234
7.5133	4.2094
7.5024	4.2925
7.4916	4.3726
7.4807	4.4495
7.4700	4.5246
7.4592	4.5990
7.4485	4.6740
7.4378	4.7510
7.4272	4.8301
7.4165	4.9111
7.4059	4.9930
7.3954	5.0752
7.3848	5.1569
7.3743	5.2393
7.3639	5.3236
7.3534	5.4122
7.3430	5.5062
7.3326	5.6064
7.3223	5.7115
7.3119	5.8205
7.3016	5.9318
7.2914	6.0445
7.2811	6.1579
7.2709	6.2721
7.2607	6.3862
7.2506	6.4994
7.2404	6.6095
7.2303	6.7151
7.2203	6.8153
7.2102	6.9105
7.2002	7.0017
7.1902	7.0917
7.1803	7.1819
7.1703	7.2736
7.1604	7.3659
7.1506	7.4571
7.1407	7.5440
7.1309	7.6229
7.1211	7.6904
7.1113	7.7436
7.1016	7.7811
7.0919	7.8028
7.0822	7.8116
7.0725	7.8116
7.0629	7.8092
7.0533	7.8107
7.0437	7.8208
7.0341	7.8417
7.0246	7.8722
7.0151	7.9089
7.0056	7.9492
6.9962	7.9913
6.9867	8.0378
6.9773	8.0941
6.9679	8.1666
6.9586	8.2604
6.9493	8.3764
6.9400	8.5116
6.9307	8.6587
6.9214	8.8081
6.9122	8.9528
6.9030	9.0888
6.8938	9.2176
6.8847	9.3448
6.8755	9.4788
6.8664	9.6259
6.8573	9.7881
6.8483	9.9607
6.8393	10.136
6.8302	10.304
6.8213	10.458
6.8123	10.599
6.8034	10.731
6.7944	10.863
6.7855	11.003
6.7767	11.154
6.7678	11.315
6.7590	11.478
6.7502	11.638
6.7414	11.789
6.7327	11.933
6.7239	12.074
6.7152	12.216
6.7065	12.363
6.6979	12.512
6.6892	12.656
6.6806	12.787
6.6720	12.899
6.6634	12.991
6.6549	13.071
6.6464	13.152
6.6378	13.243
6.6294	13.352
6.6209	13.476
6.6124	13.604
6.6040	13.725
6.5956	13.834
6.5872	13.930
6.5789	14.023
6.5705	14.122
6.5622	14.234
6.5539	14.355
6.5456	14.473
6.5374	14.573
6.5292	14.642
6.5209	14.679
6.5128	14.698
6.5046	14.718
6.4964	14.761
6.4883	14.840
6.4802	14.951
6.4721	15.075
6.4640	15.180
6.4560	15.241
6.4480	15.243
6.4399	15.189
6.4320	15.100
6.4240	15.008
6.4160	14.938
6.4081	14.900
6.4002	14.889
6.3923	14.883
6.3844	14.857
6.3766	14.794
6.3687	14.688
6.3609	14.548
6.3531	14.392
6.3454	14.238
6.3376	14.100
6.3299	13.980
6.3221	13.874
6.3144	13.773
6.3068	13.671
6.2991	13.561
6.2914	13.443
6.2838	13.319
6.2762	13.191
6.2686	13.062
6.2611	12.930
6.2535	12.796
6.2460	12.657
6.2385	12.512
6.2310	12.359
6.2235	12.197
6.2160	12.027
6.2086	11.854
6.2011	11.683
6.1937	11.524
6.1863	11.386
6.1790	11.275
6.1716	11.193
6.1643	11.137
6.1570	11.099
6.1496	11.073
6.1424	11.054
6.1351	11.043
6.1278	11.046
6.1206	11.068
6.1134	11.116
6.1062	11.188
6.0990	11.278
6.0918	11.375
6.0847	11.472
6.0776	11.566
6.0704	11.664
6.0633	11.780
6.0563	11.930
6.0492	12.123
6.0421	12.361
6.0351	12.632
6.0281	12.917
6.0211	13.197
6.0141	13.458
6.0071	13.696
6.0002	13.917
5.9932	14.127
5.9863	14.333
5.9794	14.536
5.9725	14.732
5.9657	14.917
5.9588	15.090
5.9520	15.253
5.9451	15.416
5.9383	15.583
5.9315	15.753
5.9247	15.919
5.9180	16.070
5.9112	16.197
5.9045	16.303
5.8978	16.399
5.8911	16.507
5.8844	16.644
5.8777	16.816
5.8711	17.014
5.8644	17.214
5.8578	17.391
5.8512	17.523
5.8446	17.604
5.8380	17.646
5.8314	17.671
5.8249	17.701
5.8184	17.748
5.8118	17.810
5.8053	17.871
5.7988	17.911
5.7923	17.916
5.7859	17.884
5.7794	17.827
5.7730	17.765
5.7666	17.719
5.7602	17.697
5.7538	17.701
5.7474	17.717
5.7410	17.733
5.7347	17.735
5.7283	17.723
5.7220	17.699
5.7157	17.674
5.7094	17.656
5.7031	17.649
5.6969	17.652
5.6906	17.659
5.6844	17.665
5.6782	17.664
5.6719	17.656
5.6657	17.647
5.6596	17.643
5.6534	17.656
5.6472	17.694
5.6411	17.760
5.6349	17.855
5.6288	17.967
5.6227	18.084
5.6166	18.191
5.6106	18.276
5.6045	18.335
5.5984	18.372
5.5924	18.396
5.5864	18.424
5.5804	18.472
5.5744	18.552
5.5684	18.675
5.5624	18.841
5.5564	19.048
5.5505	19.289
5.5445	19.556
5.5386	19.840
5.5327	20.133
5.5268	20.431
5.5209	20.727
5.5151	21.015
5.5092	21.289
5.5033	21.545
5.4975	21.778
5.4917	21.989
5.4859	22.183
5.4801	22.366
5.4743	22.549
5.4685	22.738
5.4628	22.934
5.4570	23.133
5.4513	23.329
5.4455	23.515
5.4398	23.689
5.4341	23.854
5.4284	24.017
5.4228	24.184
5.4171	24.360
5.4114	24.542
5.4058	24.725
5.4002	24.899
5.3945	25.056
5.3889	25.190
5.3833	25.301
5.3778	25.390
5.3722	25.467
5.3666	25.539
5.3611	25.616
5.3555	25.706
5.3500	25.812
5.3445	25.935
5.3390	26.069
5.3335	26.207
5.3280	26.341
5.3225	26.467
5.3171	26.582
5.3116	26.690
5.3062	26.795
5.3008	26.905
5.2954	27.025
5.2900	27.157
5.2846	27.302
5.2792	27.459
5.2738	27.623
5.2684	27.791
5.2631	27.961
5.2578	28.132
5.2524	28.303
5.2471	28.478
5.2418	28.659
5.2365	28.849
5.2312	29.050
5.2260	29.264
5.2207	29.492
5.2154	29.732
5.2102	29.981
5.2050	30.237
5.1998	30.495
5.1945	30.752
5.1893	31.004
5.1842	31.250
5.1790	31.489
5.1738	31.720
5.1686	31.944
5.1635	32.163
5.1584	32.377
5.1532	32.591
5.1481	32.804
5.1430	33.021
5.1379	33.242
5.1328	33.466
5.1277	33.695
5.1227	33.927
5.1176	34.161
5.1126	34.397
5.1075	34.634
5.1025	34.871
5.0975	35.106
5.0925	35.335
5.0875	35.557
5.0825	35.766
5.0775	35.961
5.0726	36.138
5.0676	36.297
5.0627	36.439
5.0577	36.564
5.0528	36.676
5.0479	36.776
5.0430	36.867
5.0380	36.952
5.0332	37.032
5.0283	37.110
5.0234	37.187
5.0185	37.265
5.0137	37.347
5.0088	37.435
5.0040	37.531
4.9992	37.639
4.9944	37.762
4.9896	37.902
4.9848	38.061
4.9800	38.236
4.9752	38.426
4.9704	38.623
4.9657	38.820
4.9609	39.009
4.9562	39.182
4.9514	39.330
4.9467	39.450
4.9420	39.536
4.9373	39.591
4.9326	39.618
4.9279	39.624
4.9232	39.619
4.9186	39.611
4.9139	39.613
4.9092	39.631
4.9046	39.670
4.9000	39.732
4.8953	39.815
4.8907	39.915
4.8861	40.028
4.8815	40.148
4.8769	40.271
4.8723	40.396
4.8678	40.520
4.8632	40.645
4.8586	40.768
4.8541	40.887
4.8495	41.001
4.8450	41.106
4.8405	41.198
4.8360	41.276
4.8315	41.337
4.8270	41.381
4.8225	41.406
4.8180	41.414
4.8135	41.407
4.8090	41.386
4.8046	41.358
4.8001	41.326
4.7957	41.297
4.7913	41.277
4.7868	41.272
4.7824	41.287
4.7780	41.324
4.7736	41.387
4.7692	41.472
4.7648	41.577
4.7605	41.696
4.7561	41.823
4.7517	41.952
4.7474	42.079
4.7431	42.199
4.7387	42.313
4.7344	42.419
4.7301	42.519
4.7258	42.615
4.7215	42.707
4.7172	42.796
4.7129	42.882
4.7086	42.963
4.7043	43.040
4.7000	43.113
4.6958	43.184
4.6915	43.255
4.6873	43.328
4.6831	43.403
4.6788	43.482
4.6746	43.563
4.6704	43.646
4.6662	43.729
4.6620	43.815
4.6578	43.905
4.6536	44.002
4.6495	44.108
4.6453	44.224
4.6411	44.352
4.6370	44.492
4.6328	44.640
4.6287	44.796
4.6246	44.956
4.6205	45.118
4.6163	45.278
4.6122	45.435
4.6081	45.587
4.6040	45.732
4.6000	45.872
4.5959	46.006
4.5918	46.137
4.5877	46.267
4.5837	46.398
4.5796	46.533
4.5756	46.671
4.5716	46.813
4.5675	46.958
4.5635	47.103
4.5595	47.248
4.5555	47.392
4.5515	47.534
4.5475	47.675
4.5435	47.816
4.5395	47.957
4.5356	48.097
4.5316	48.237
4.5276	48.374
4.5237	48.510
4.5197	48.642
4.5158	48.771
4.5119	48.899
4.5080	49.024
4.5040	49.148
4.5001	49.272
4.4962	49.396
4.4923	49.521
4.4884	49.646
4.4846	49.771
4.4807	49.897
4.4768	50.023
4.4730	50.147
4.4691	50.270
4.4652	50.391
4.4614	50.509
4.4576	50.624
4.4537	50.736
4.4499	50.842
4.4461	50.945
4.4423	51.043
4.4385	51.137
4.4347	51.228
4.4309	51.316
4.4271	51.403
4.4233	51.488
4.4196	51.574
4.4158	51.661
4.4120	51.749
4.4083	51.840
4.4045	51.931
4.4008	52.024
4.3971	52.115
4.3934	52.206
4.3896	52.296
4.3859	52.386
4.3822	52.476
4.3785	52.569
4.3748	52.663
4.3711	52.758
4.3674	52.855
4.3638	52.951
4.3601	53.045
4.3564	53.137
4.3528	53.228
4.3491	53.316
4.3455	53.404
4.3418	53.491
4.3382	53.578
4.3346	53.664
4.3310	53.749
4.3273	53.832
4.3237	53.913
4.3201	53.993
4.3165	54.072
4.3129	54.150
4.3094	54.229
4.3058	54.306
4.3022	54.383
4.2986	54.458
4.2951	54.531
4.2915	54.602
4.2880	54.671
4.2844	54.739
4.2809	54.806
4.2774	54.872
4.2738	54.938
4.2703	55.006
4.2668	55.076
4.2633	55.146
4.2598	55.217
4.2563	55.287
4.2528	55.354
4.2493	55.417
4.2458	55.475
4.2424	55.529
4.2389	55.579
4.2354	55.628
4.2320	55.676
4.2285	55.726
4.2251	55.778
4.2216	55.832
4.2182	55.887
4.2148	55.942
4.2113	55.997
4.2079	56.051
4.2045	56.102
4.2011	56.150
4.1977	56.194
4.1943	56.232
4.1909	56.265
4.1875	56.295
4.1841	56.323
4.1808	56.350
4.1774	56.377
4.1740	56.404
4.1707	56.433
4.1673	56.464
4.1640	56.496
4.1606	56.531
4.1573	56.568
4.1540	56.607
4.1506	56.645
4.1473	56.682
4.1440	56.716
4.1407	56.748
4.1374	56.777
4.1341	56.805
4.1308	56.831
4.1275	56.856
4.1242	56.880
4.1209	56.902
4.1177	56.923
4.1144	56.941
4.1111	56.959
4.1079	56.976
4.1046	56.993
4.1014	57.012
4.0981	57.031
4.0949	57.051
4.0917	57.070
4.0884	57.087
4.0852	57.102
4.0820	57.114
4.0788	57.125
4.0756	57.135
4.0724	57.146
4.0692	57.159
4.0660	57.173
4.0628	57.186
4.0596	57.196
4.0565	57.202
4.0533	57.203
4.0501	57.199
4.0470	57.191
4.0438	57.180
4.0406	57.168
4.0375	57.155
4.0344	57.143
4.0312	57.131
4.0281	57.117
4.0250	57.101
4.0218	57.079
4.0187	57.052
4.0156	57.018
4.0125	56.979
4.0094	56.935
4.0063	56.887
4.0032	56.837
4.0001	56.785
3.9970	56.732
3.9940	56.681
3.9909	56.634
3.9878	56.594
3.9847	56.565
3.9817	56.547
3.9786	56.541
3.9756	56.546
3.9725	56.560
3.9695	56.580
3.9665	56.605
3.9634	56.633
3.9604	56.665
3.9574	56.699
3.9544	56.735
3.9513	56.773
3.9483	56.811
3.9453	56.847
3.9423	56.879
3.9393	56.905
3.9363	56.924
3.9333	56.936
3.9304	56.941
3.9274	56.941
3.9244	56.937
3.9214	56.930
3.9185	56.920
3.9155	56.908
3.9126	56.895
3.9096	56.881
3.9067	56.868
3.9037	56.857
3.9008	56.846
3.8979	56.834
3.8949	56.821
3.8920	56.805
3.8891	56.786
3.8862	56.764
3.8833	56.741
3.8804	56.717
3.8775	56.693
3.8746	56.671
3.8717	56.650
3.8688	56.630
3.8659	56.609
3.8630	56.587
3.8601	56.564
3.8573	56.539
3.8544	56.514
3.8515	56.489
3.8487	56.467
3.8458	56.446
3.8430	56.427
3.8401	56.410
3.8373	56.393
3.8344	56.375
3.8316	56.353
3.8288	56.328
3.8259	56.300
3.8231	56.270
3.8203	56.240
3.8175	56.212
3.8147	56.188
3.8119	56.167
3.8091	56.147
3.8063	56.127
3.8035	56.104
3.8007	56.077
3.7979	56.045
3.7951	56.008
3.7924	55.968
3.7896	55.925
3.7868	55.882
3.7841	55.837
3.7813	55.792
3.7785	55.747
3.7758	55.700
3.7730	55.651
3.7703	55.602
3.7676	55.551
3.7648	55.500
3.7621	55.448
3.7594	55.396
3.7566	55.342
3.7539	55.288
3.7512	55.232
3.7485	55.174
3.7458	55.117
3.7431	55.061
3.7404	55.005
3.7377	54.950
3.7350	54.896
3.7323	54.842
3.7296	54.787
3.7269	54.732
3.7242	54.676
3.7216	54.618
3.7189	54.559
3.7162	54.499
3.7136	54.437
3.7109	54.374
3.7083	54.310
3.7056	54.247
3.7030	54.185
3.7003	54.124
3.6977	54.064
3.6950	54.005
3.6924	53.945
3.6898	53.883
3.6872	53.819
3.6845	53.750
3.6819	53.679
3.6793	53.604
3.6767	53.528
3.6741	53.452
3.6715	53.378
3.6689	53.306
3.6663	53.237
3.6637	53.169
3.6611	53.100
3.6585	53.030
3.6560	52.956
3.6534	52.877
3.6508	52.793
3.6482	52.707
3.6457	52.621
3.6431	52.536
3.6406	52.454
3.6380	52.374
3.6355	52.294
3.6329	52.213
3.6304	52.128
3.6278	52.039
3.6253	51.947
3.6227	51.852
3.6202	51.756
3.6177	51.660
3.6152	51.565
3.6127	51.471
3.6101	51.377
3.6076	51.281
3.6051	51.183
3.6026	51.083
3.6001	50.980
3.5976	50.876
3.5951	50.770
3.5926	50.664
3.5901	50.556
3.5876	50.447
3.5852	50.337
3.5827	50.224
3.5802	50.110
3.5777	49.993
3.5753	49.876
3.5728	49.758
3.5704	49.638
3.5679	49.517
3.5654	49.392
3.5630	49.264
3.5605	49.132
3.5581	48.995
3.5557	48.856
3.5532	48.715
3.5508	48.573
3.5484	48.429
3.5459	48.283
3.5435	48.135
3.5411	47.984
3.5387	47.831
3.5363	47.676
3.5338	47.522
3.5314	47.370
3.5290	47.219
3.5266	47.070
3.5242	46.920
3.5218	46.769
3.5195	46.613
3.5171	46.454
3.5147	46.293
3.5123	46.136
3.5099	45.988
3.5075	45.856
3.5052	45.747
3.5028	45.665
3.5004	45.614
3.4981	45.589
3.4957	45.587
3.4934	45.598
3.4910	45.613
3.4887	45.621
3.4863	45.616
3.4840	45.594
3.4816	45.557
3.4793	45.508
3.4770	45.451
3.4746	45.388
3.4723	45.320
3.4700	45.248
3.4677	45.167
3.4653	45.076
3.4630	44.973
3.4607	44.858
3.4584	44.734
3.4561	44.603
3.4538	44.471
3.4515	44.342
3.4492	44.221
3.4469	44.111
3.4446	44.011
3.4423	43.920
3.4400	43.836
3.4378	43.756
3.4355	43.679
3.4332	43.601
3.4309	43.521
3.4287	43.435
3.4264	43.340
3.4241	43.237
3.4219	43.125
3.4196	43.008
3.4174	42.891
3.4151	42.779
3.4129	42.675
3.4106	42.577
3.4084	42.481
3.4061	42.382
3.4039	42.273
3.4017	42.152
3.3994	42.018
3.3972	41.876
3.3950	41.728
3.3928	41.579
3.3906	41.433
3.3883	41.293
3.3861	41.157
3.3839	41.026
3.3817	40.897
3.3795	40.769
3.3773	40.640
3.3751	40.508
3.3729	40.373
3.3707	40.237
3.3685	40.100
3.3663	39.965
3.3641	39.834
3.3620	39.707
3.3598	39.586
3.3576	39.468
3.3554	39.354
3.3533	39.242
3.3511	39.132
3.3489	39.024
3.3468	38.919
3.3446	38.817
3.3425	38.715
3.3403	38.613
3.3382	38.508
3.3360	38.396
3.3339	38.278
3.3317	38.152
3.3296	38.021
3.3274	37.885
3.3253	37.749
3.3232	37.612
3.3210	37.476
3.3189	37.342
3.3168	37.211
3.3147	37.081
3.3126	36.952
3.3104	36.823
3.3083	36.693
3.3062	36.561
3.3041	36.424
3.3020	36.283
3.2999	36.138
3.2978	35.990
3.2957	35.841
3.2936	35.694
3.2915	35.552
3.2894	35.418
3.2874	35.291
3.2853	35.169
3.2832	35.050
3.2811	34.931
3.2790	34.811
3.2770	34.687
3.2749	34.560
3.2728	34.433
3.2708	34.307
3.2687	34.183
3.2666	34.062
3.2646	33.943
3.2625	33.826
3.2605	33.713
3.2584	33.602
3.2564	33.494
3.2543	33.389
3.2523	33.287
3.2503	33.186
3.2482	33.087
3.2462	32.987
3.2442	32.886
3.2421	32.784
3.2401	32.680
3.2381	32.575
3.2361	32.469
3.2340	32.364
3.2320	32.259
3.2300	32.156
3.2280	32.052
3.2260	31.948
3.2240	31.842
3.2220	31.733
3.2200	31.621
3.2180	31.505
3.2160	31.385
3.2140	31.263
3.2120	31.138
3.2100	31.009
3.2080	30.878
3.2060	30.743
3.2040	30.605
3.2021	30.465
