Name: Altered volcanic tuff
Type: Rock
Class: Igneous
Subclass: Felsic
Particle Size: Whole rock chips
Sample No.: Cup1
Owner: USGS
Wavelength range: 0.40 - 14.05 um
Origin: Cuprite, Nevada

Description: Altered volcanic tuff, white





Measurement: Directional Hemispherical Reflectance
First Column: X
Second Column: Y
X Units: Wavelength (micrometers)
Y Units: Reflectance (percent)
First X Value: 14.05105
Last X Value: 0.40000
Number of X Values: 2756
Additional Information: None

 14.051   2.8531
 14.013   2.6677
 13.975   2.7398
 13.938   2.6986
 13.900   2.7810
 13.863   2.9252
 13.826   3.0488
 13.790   2.9664
 13.753   3.0385
 13.717   3.0797
 13.680   3.1621
 13.644   3.1415
 13.609   3.3166
 13.573   3.2960
 13.538   3.3578
 13.502   3.3887
 13.467   3.4608
 13.432   3.5329
 13.398   3.7183
 13.363   3.7183
 13.329   3.7389
 13.295   3.7080
 13.261   3.7492
 13.227   3.7492
 13.193   3.7698
 13.160   3.8007
 13.126   3.8934
 13.093   3.9449
 13.060   4.1200
 13.027   4.2642
 12.995   4.4187
 12.962   4.5732
 12.930   4.7277
 12.898   4.8719
 12.866   5.1912
 12.834   5.4178
 12.802   5.5929
 12.771   5.6547
 12.739   5.6238
 12.708   5.4796
 12.677   5.2015
 12.646   4.9543
 12.616   4.9028
 12.585   4.8204
 12.554   4.6968
 12.524   4.5526
 12.494   4.4702
 12.464   4.2436
 12.434   3.9346
 12.404   3.4093
 12.375   2.9458
 12.345   2.5029
 12.316   2.2351
 12.287   2.1115
 12.258   2.1733
 12.229   2.2454
 12.200   2.3690
 12.171   2.3896
 12.143   2.4823
 12.115   2.5956
 12.086   2.7295
 12.058   2.7913
 12.030   2.9870
 12.002   3.0179
 11.975   3.0694
 11.947   3.1312
 11.920   3.2136
 11.892   3.2754
 11.865   3.3269
 11.838   3.3578
 11.811   3.5123
 11.784   3.6050
 11.757   3.6771
 11.731   3.6359
 11.704   3.6874
 11.678   3.7801
 11.652   3.9449
 11.626   3.9964
 11.600   4.0685
 11.574   4.1097
 11.548   4.2127
 11.522   4.2230
 11.497   4.3466
 11.471   4.4805
 11.446   4.5732
 11.421   4.5114
 11.396   4.5423
 11.371   4.5320
 11.346   4.6968
 11.321   4.7895
 11.297   4.8925
 11.272   4.9337
 11.248   5.0264
 11.223   5.0573
 11.199   5.1809
 11.175   5.3045
 11.151   5.4178
 11.127   5.5208
 11.103   5.6238
 11.079   5.6753
 11.056   5.8710
 11.032   5.9740
 11.009   6.0770
 10.985   6.1697
 10.962   6.3860
 10.939   6.4787
 10.916   6.5096
 10.893   6.3345
 10.870   6.1285
 10.848   5.9534
 10.825   5.8298
 10.802   5.6650
 10.780   5.5517
 10.758   5.4899
 10.735   5.5208
 10.713   5.4590
 10.691   5.5517
 10.669   5.6444
 10.647   5.6856
 10.625   5.6032
 10.604   5.5414
 10.582   5.5105
 10.560   5.4590
 10.539   5.2839
 10.518   5.1912
 10.496   5.2221
 10.475   5.2839
 10.454   5.2839
 10.433   5.3869
 10.412   5.5002
 10.391   5.6547
 10.370   5.7989
 10.350   6.0152
 10.329   6.1697
 10.309   6.3654
 10.288   6.5199
 10.268   6.6847
 10.247   6.7671
 10.227   6.9319
 10.207   7.0967
 10.187   7.3336
 10.167   7.4675
 10.147   7.7147
 10.127   7.9825
 10.108   8.2606
 10.088   8.4048
 10.068   8.6623
 10.049   9.0537
 10.029   9.4966
 10.010   9.6923
  9.991   9.9704
  9.972  10.4442
  9.952  10.8665
  9.933  11.1961
  9.914  11.5463
  9.895  11.6596
  9.877  11.8141
  9.858  11.9995
  9.839  12.2055
  9.821  12.3394
  9.802  12.4527
  9.783  12.5454
  9.765  12.7926
  9.747  13.1428
  9.728  13.6269
  9.710  14.1316
  9.692  14.6878
  9.674  15.1410
  9.656  15.5324
  9.638  15.7075
  9.620  15.8620
  9.602  15.9547
  9.585  16.0886
  9.567  16.2328
  9.549  16.4697
  9.532  16.6139
  9.514  16.8096
  9.497  17.0568
  9.479  17.4276
  9.462  17.7572
  9.445  18.1589
  9.428  18.6430
  9.411  19.2507
  9.394  19.9614
  9.377  20.7339
  9.360  21.5785
  9.343  22.4128
  9.326  23.1235
  9.309  24.0093
  9.293  24.9260
  9.276  25.8736
  9.259  26.7285
  9.243  27.5628
  9.226  28.2529
  9.210  28.9018
  9.194  29.4271
  9.178  29.8906
  9.161  30.1584
  9.145  30.2923
  9.129  30.3747
  9.113  30.3541
  9.097  30.1172
  9.081  29.7155
  9.065  29.2932
  9.049  28.9121
  9.034  28.3559
  9.018  27.7173
  9.002  27.2229
  8.987  27.1714
  8.971  27.4289
  8.956  27.9130
  8.940  28.3765
  8.925  28.5619
  8.909  28.5001
  8.894  28.3971
  8.879  28.1293
  8.864  27.6967
  8.849  27.1920
  8.834  26.6770
  8.819  26.1311
  8.804  25.5337
  8.789  24.8745
  8.774  24.2771
  8.759  23.7003
  8.744  23.1441
  8.730  22.5364
  8.715  21.9390
  8.700  21.3107
  8.686  20.6309
  8.671  19.8893
  8.657  19.1786
  8.642  18.3031
  8.628  17.5100
  8.614  17.0156
  8.599  16.9332
  8.585  17.0465
  8.571  17.1701
  8.557  17.1598
  8.543  17.0259
  8.529  16.7890
  8.515  16.5624
  8.501  16.3049
  8.487  15.9959
  8.473  15.6148
  8.459  15.2646
  8.445  14.8114
  8.431  14.3479
  8.418  13.8947
  8.404  13.5548
  8.391  13.1943
  8.377  12.9162
  8.363  12.7823
  8.350  12.8235
  8.337  12.8338
  8.323  12.8029
  8.310  12.7617
  8.297  12.7514
  8.283  12.6072
  8.270  12.4836
  8.257  12.4012
  8.244  12.3291
  8.231  12.1746
  8.218  11.9686
  8.205  11.7317
  8.192  11.5360
  8.179  11.3197
  8.166  11.0519
  8.153  10.6914
  8.140  10.2279
  8.128   9.7335
  8.115   9.3421
  8.102   8.9095
  8.090   8.4563
  8.077   7.9722
  8.064   7.6014
  8.052   7.2615
  8.039   6.9422
  8.027   6.5611
  8.015   6.3242
  8.002   6.1491
  7.990   5.8710
  7.978   5.5311
  7.965   5.3560
  7.953   5.2221
  7.941   5.0058
  7.929   4.7174
  7.917   4.4702
  7.905   4.2539
  7.893   4.0170
  7.881   3.8110
  7.869   3.6359
  7.857   3.4505
  7.845   3.3166
  7.833   3.1106
  7.821   2.9664
  7.809   2.8428
  7.798   2.7295
  7.786   2.5647
  7.774   2.4926
  7.763   2.4205
  7.751   2.3587
  7.739   2.2454
  7.728   2.1527
  7.716   2.0806
  7.705   1.9982
  7.694   1.9570
  7.682   1.9261
  7.671   1.8334
  7.659   1.7819
  7.648   1.6892
  7.637   1.6377
  7.626   1.6068
  7.614   1.6480
  7.603   1.5450
  7.592   1.4626
  7.581   1.4626
  7.570   1.5141
  7.559   1.4523
  7.548   1.3596
  7.537   1.2978
  7.526   1.3699
  7.515   1.4008
  7.504   1.4317
  7.493   1.3802
  7.483   1.3287
  7.472   1.2875
  7.461   1.2669
  7.450   1.2360
  7.440   1.2978
  7.429   1.2463
  7.418   1.2257
  7.408   1.1845
  7.397   1.1536
  7.387   1.1639
  7.376   1.2566
  7.366   1.2978
  7.355   1.2669
  7.345   1.1948
  7.334   1.1639
  7.324   1.1845
  7.314   1.2154
  7.303   1.2051
  7.293   1.1639
  7.283   1.1639
  7.273   1.1948
  7.263   1.1433
  7.252   1.1845
  7.242   1.1948
  7.232   1.1845
  7.222   1.1845
  7.212   1.2051
  7.202   1.1536
  7.192   1.1845
  7.182   1.1845
  7.172   1.1948
  7.162   1.1639
  7.152   1.1845
  7.143   1.2154
  7.133   1.2257
  7.123   1.2566
  7.113   1.2875
  7.103   1.2360
  7.094   1.2772
  7.084   1.2257
  7.074   1.2051
  7.065   1.2051
  7.055   1.2566
  7.046   1.2772
  7.036   1.2978
  7.026   1.2772
  7.017   1.2875
  7.007   1.2978
  6.998   1.3390
  6.989   1.3081
  6.979   1.3287
  6.970   1.3390
  6.960   1.3184
  6.951   1.2463
  6.942   1.3081
  6.932   1.3905
  6.923   1.4317
  6.914   1.3802
  6.905   1.3802
  6.896   1.3802
  6.886   1.3699
  6.877   1.3184
  6.868   1.3699
  6.859   1.3802
  6.850   1.4008
  6.841   1.4008
  6.832   1.4111
  6.823   1.4008
  6.814   1.4111
  6.805   1.3905
  6.796   1.3493
  6.787   1.3699
  6.778   1.4214
  6.770   1.3699
  6.761   1.3596
  6.752   1.4523
  6.743   1.4935
  6.734   1.4523
  6.726   1.4626
  6.717   1.4832
  6.708   1.4935
  6.700   1.5244
  6.691   1.5965
  6.682   1.5553
  6.674   1.5038
  6.665   1.5244
  6.657   1.5141
  6.648   1.5141
  6.640   1.5347
  6.631   1.4832
  6.623   1.4729
  6.614   1.5038
  6.606   1.5244
  6.597   1.5450
  6.589   1.6171
  6.581   1.6171
  6.572   1.6274
  6.564   1.6583
  6.556   1.6480
  6.547   1.6583
  6.539   1.7098
  6.531   1.6480
  6.523   1.6686
  6.514   1.7201
  6.506   1.7304
  6.498   1.7613
  6.490   1.8231
  6.482   1.8231
  6.474   1.8025
  6.466   1.7716
  6.458   1.7819
  6.450   1.8128
  6.442   1.8334
  6.434   1.8334
  6.426   1.8746
  6.418   1.9055
  6.410   1.9467
  6.402   1.9261
  6.394   1.9158
  6.386   1.9261
  6.378   1.8952
  6.370   1.8437
  6.363   1.8231
  6.355   1.8437
  6.347   1.8746
  6.339   1.8643
  6.332   1.8540
  6.324   1.7922
  6.316   1.7922
  6.308   1.8128
  6.301   1.8231
  6.293   1.7304
  6.286   1.6583
  6.278   1.6686
  6.270   1.6892
  6.263   1.6377
  6.255   1.6171
  6.248   1.6274
  6.240   1.6789
  6.233   1.7098
  6.225   1.6995
  6.218   1.6686
  6.210   1.6171
  6.203   1.6068
  6.195   1.6377
  6.188   1.5965
  6.181   1.5656
  6.173   1.5656
  6.166   1.5862
  6.159   1.6171
  6.151   1.6274
  6.144   1.6377
  6.137   1.6686
  6.130   1.5862
  6.122   1.5862
  6.115   1.6583
  6.108   1.6583
  6.101   1.6377
  6.094   1.6480
  6.086   1.6583
  6.079   1.6583
  6.072   1.6480
  6.065   1.6686
  6.058   1.6480
  6.051   1.6686
  6.044   1.7098
  6.037   1.7510
  6.030   1.7716
  6.023   1.8025
  6.016   1.8540
  6.009   1.8540
  6.002   1.8231
  5.995   1.8437
  5.988   1.8334
  5.981   1.8643
  5.974   1.8849
  5.967   1.8746
  5.960   1.9467
  5.954   2.0291
  5.947   2.0600
  5.940   2.0497
  5.933   2.0497
  5.926   2.0806
  5.920   2.0909
  5.913   2.1527
  5.906   2.1939
  5.899   2.2351
  5.893   2.1733
  5.886   2.1733
  5.879   2.2248
  5.873   2.2763
  5.866   2.2763
  5.859   2.3072
  5.853   2.3175
  5.846   2.3175
  5.840   2.3175
  5.833   2.3381
  5.827   2.3587
  5.820   2.3381
  5.813   2.3587
  5.807   2.3896
  5.800   2.3175
  5.794   2.3072
  5.788   2.3690
  5.781   2.4102
  5.775   2.3793
  5.768   2.3278
  5.762   2.3381
  5.755   2.3690
  5.749   2.3381
  5.743   2.3999
  5.736   2.4102
  5.730   2.3690
  5.724   2.3484
  5.717   2.3381
  5.711   2.3175
  5.705   2.3175
  5.698   2.2969
  5.692   2.3690
  5.686   2.4205
  5.680   2.3999
  5.674   2.3587
  5.667   2.3381
  5.661   2.3278
  5.655   2.3381
  5.649   2.3690
  5.643   2.3690
  5.637   2.3175
  5.630   2.3175
  5.624   2.3278
  5.618   2.3278
  5.612   2.3175
  5.606   2.3175
  5.600   2.3278
  5.594   2.3690
  5.588   2.3793
  5.582   2.3484
  5.576   2.3690
  5.570   2.4308
  5.564   2.4514
  5.558   2.4308
  5.552   2.4102
  5.546   2.3999
  5.540   2.4411
  5.534   2.4102
  5.528   2.3690
  5.523   2.4308
  5.517   2.4411
  5.511   2.4102
  5.505   2.3587
  5.499   2.3381
  5.493   2.3175
  5.487   2.2969
  5.482   2.3381
  5.476   2.3896
  5.470   2.3999
  5.464   2.3587
  5.459   2.3690
  5.453   2.4308
  5.447   2.4308
  5.441   2.3896
  5.436   2.3587
  5.430   2.3793
  5.424   2.3793
  5.419   2.4205
  5.413   2.4308
  5.407   2.3690
  5.402   2.2866
  5.396   2.2557
  5.390   2.2454
  5.385   2.2454
  5.379   2.1939
  5.374   2.1218
  5.368   2.1218
  5.363   2.1115
  5.357   2.0497
  5.352   2.0497
  5.346   2.0497
  5.341   2.0394
  5.335   2.0497
  5.330   2.0085
  5.324   1.9982
  5.319   2.0085
  5.313   1.9879
  5.308   2.0188
  5.302   2.0600
  5.297   2.0703
  5.291   2.0909
  5.286   2.0909
  5.281   2.0600
  5.275   2.1012
  5.270   2.1424
  5.265   2.1733
  5.259   2.1424
  5.254   2.1527
  5.249   2.2248
  5.243   2.2866
  5.238   2.3278
  5.233   2.3896
  5.227   2.3999
  5.222   2.3999
  5.217   2.4102
  5.212   2.4926
  5.206   2.5544
  5.201   2.5647
  5.196   2.5750
  5.191   2.5750
  5.186   2.6368
  5.180   2.6986
  5.175   2.6883
  5.170   2.6780
  5.165   2.6677
  5.160   2.6368
  5.155   2.6883
  5.150   2.6986
  5.145   2.6677
  5.139   2.6986
  5.134   2.7398
  5.129   2.7398
  5.124   2.7192
  5.119   2.7501
  5.114   2.7810
  5.109   2.7913
  5.104   2.8531
  5.099   2.8531
  5.094   2.8222
  5.089   2.8222
  5.084   2.8325
  5.079   2.8531
  5.074   2.8531
  5.069   2.8222
  5.064   2.8016
  5.059   2.8222
  5.054   2.8325
  5.049   2.8119
  5.044   2.7707
  5.040   2.7810
  5.035   2.7604
  5.030   2.7501
  5.025   2.8119
  5.020   2.8325
  5.015   2.8634
  5.010   2.8840
  5.005   2.8737
  5.001   2.8943
  4.996   2.8943
  4.991   2.8634
  4.986   2.9046
  4.981   2.9664
  4.977   2.9973
  4.972   2.9870
  4.967   2.9458
  4.962   2.9973
  4.958   3.0282
  4.953   3.0694
  4.948   3.1415
  4.943   3.1827
  4.939   3.2033
  4.934   3.3063
  4.929   3.4196
  4.925   3.5226
  4.920   3.6050
  4.915   3.6462
  4.911   3.6977
  4.906   3.8419
  4.901   3.9964
  4.897   4.1406
  4.892   4.2642
  4.888   4.3981
  4.883   4.5320
  4.878   4.6659
  4.874   4.7586
  4.869   4.9337
  4.865   5.0985
  4.860   5.3148
  4.856   5.4899
  4.851   5.5929
  4.846   5.7165
  4.842   5.9019
  4.837   6.0770
  4.833   6.2109
  4.828   6.3036
  4.824   6.3963
  4.819   6.6023
  4.815   6.7465
  4.810   6.8289
  4.806   6.9525
  4.802   7.0761
  4.797   7.1482
  4.793   7.2821
  4.788   7.4160
  4.784   7.5087
  4.779   7.6323
  4.775   7.7353
  4.771   7.8280
  4.766   7.9104
  4.762   7.9619
  4.758   8.0237
  4.753   8.1370
  4.749   8.2194
  4.744   8.2194
  4.740   8.2194
  4.736   8.2400
  4.731   8.2709
  4.727   8.3224
  4.723   8.3533
  4.719   8.4254
  4.714   8.4769
  4.710   8.4769
  4.706   8.4151
  4.701   8.3636
  4.697   8.3327
  4.693   8.3018
  4.689   8.2503
  4.684   8.2812
  4.680   8.3327
  4.676   8.3430
  4.672   8.3739
  4.668   8.4048
  4.663   8.3739
  4.659   8.3533
  4.655   8.3739
  4.651   8.3945
  4.647   8.4872
  4.643   8.6314
  4.638   8.7962
  4.634   8.8992
  4.630   8.9816
  4.626   9.1155
  4.622   9.2185
  4.618   9.3318
  4.614   9.4451
  4.610   9.6099
  4.605   9.7129
  4.601   9.7541
  4.597   9.8674
  4.593   9.9807
  4.589  10.0528
  4.585  10.1249
  4.581  10.2897
  4.577  10.3927
  4.573  10.4030
  4.569  10.4236
  4.565  10.4854
  4.561  10.5369
  4.557  10.5266
  4.553  10.5678
  4.549  10.5987
  4.545  10.5987
  4.541  10.6605
  4.537  10.6811
  4.533  10.6605
  4.529  10.6605
  4.525  10.6708
  4.521  10.6399
  4.517  10.5472
  4.513  10.4339
  4.509  10.4545
  4.505  10.4751
  4.502  10.3824
  4.498  10.3206
  4.494  10.2588
  4.490  10.2691
  4.486  10.2794
  4.482  10.2485
  4.478  10.2794
  4.474  10.2691
  4.470  10.2176
  4.467  10.2176
  4.463  10.3206
  4.459  10.4442
  4.455  10.5060
  4.451  10.5369
  4.447  10.5369
  4.444  10.5060
  4.440  10.5060
  4.436  10.4751
  4.432  10.5163
  4.428  10.5575
  4.425  10.5060
  4.421  10.5163
  4.417  10.6296
  4.413  10.6090
  4.410  10.6193
  4.406  10.6502
  4.402  10.6296
  4.398  10.6708
  4.395  10.7841
  4.391  10.8562
  4.387  10.9386
  4.384  10.9798
  4.380  11.0313
  4.376  11.1343
  4.372  11.2373
  4.369  11.3197
  4.365  11.4433
  4.361  11.5978
  4.358  11.7214
  4.354  11.7935
  4.350  11.9068
  4.347  11.9892
  4.343  12.0613
  4.340  12.2055
  4.336  12.3909
  4.332  12.5351
  4.329  12.6587
  4.325  12.7308
  4.321  12.8235
  4.318  12.9780
  4.314  13.1119
  4.311  13.2355
  4.307  13.3488
  4.304  13.4312
  4.300  13.5239
  4.296  13.6166
  4.293  13.7196
  4.289  13.8844
  4.286  14.0492
  4.282  14.1110
  4.279  14.1934
  4.275  14.2449
  4.272  14.2861
  4.268  14.3273
  4.265  14.4406
  4.261  14.5539
  4.258  14.5642
  4.254  14.5539
  4.251  14.6672
  4.247  14.8526
  4.244  15.0689
  4.240  15.2131
  4.237  15.2337
  4.233  15.2955
  4.230  15.2852
  4.226  15.3058
  4.223  15.3882
  4.219  15.3676
  4.216  15.2955
  4.213  15.2749
  4.209  15.2955
  4.206  15.2543
  4.202  15.1925
  4.199  15.2543
  4.196  15.2955
  4.192  15.3470
  4.189  15.3470
  4.185  15.3573
  4.182  15.4397
  4.179  15.5118
  4.175  15.5942
  4.172  15.7384
  4.169  15.8723
  4.165  15.8414
  4.162  15.8105
  4.159  15.8929
  4.155  15.9444
  4.152  15.9753
  4.149  16.0783
  4.145  16.2122
  4.142  16.2843
  4.139  16.3152
  4.135  16.3667
  4.132  16.5109
  4.129  16.6345
  4.126  16.6036
  4.122  16.5830
  4.119  16.7169
  4.116  16.8714
  4.112  16.8817
  4.109  16.9435
  4.106  16.9950
  4.103  17.0774
  4.099  17.1598
  4.096  17.2731
  4.093  17.4276
  4.090  17.5512
  4.086  17.5924
  4.083  17.5512
  4.080  17.6336
  4.077  17.7469
  4.074  17.7881
  4.070  17.8396
  4.067  17.9323
  4.064  18.0353
  4.061  18.0559
  4.058  18.0456
  4.055  18.1280
  4.051  18.2413
  4.048  18.3443
  4.045  18.4061
  4.042  18.4370
  4.039  18.5297
  4.036  18.5709
  4.032  18.5915
  4.029  18.6121
  4.026  18.6533
  4.023  18.7048
  4.020  18.7975
  4.017  18.8490
  4.014  18.8284
  4.011  18.8284
  4.008  18.8387
  4.004  18.9108
  4.001  19.0447
  3.998  19.1374
  3.995  19.1374
  3.992  19.0859
  3.989  19.0859
  3.986  19.2301
  3.983  19.3434
  3.980  19.2919
  3.977  19.2610
  3.974  19.3228
  3.971  19.4258
  3.968  19.4979
  3.965  19.4670
  3.962  19.3949
  3.959  19.4670
  3.956  19.4258
  3.953  19.3537
  3.950  19.4155
  3.947  19.5494
  3.944  19.5494
  3.941  19.4979
  3.938  19.5597
  3.935  19.6524
  3.932  19.6627
  3.929  19.7142
  3.926  19.7245
  3.923  19.6524
  3.920  19.6421
  3.917  19.7554
  3.914  19.7554
  3.911  19.7348
  3.908  19.7657
  3.905  19.7760
  3.902  19.7657
  3.899  19.7451
  3.896  19.7760
  3.893  19.7760
  3.890  19.7966
  3.887  19.8069
  3.884  19.7863
  3.882  19.7863
  3.879  19.7657
  3.876  19.6936
  3.873  19.6524
  3.870  19.6112
  3.867  19.6524
  3.864  19.7657
  3.861  19.7245
  3.858  19.6421
  3.856  19.6421
  3.853  19.6421
  3.850  19.6009
  3.847  19.6730
  3.844  19.7039
  3.841  19.6009
  3.838  19.5494
  3.836  19.5906
  3.833  19.5597
  3.830  19.5288
  3.827  19.5700
  3.824  19.6009
  3.822  19.5391
  3.819  19.4979
  3.816  19.4876
  3.813  19.4773
  3.810  19.4155
  3.807  19.3743
  3.805  19.3537
  3.802  19.3125
  3.799  19.2816
  3.796  19.2301
  3.794  19.1168
  3.791  19.0756
  3.788  19.1271
  3.785  19.1065
  3.782  19.0035
  3.780  18.9108
  3.777  18.8490
  3.774  18.8181
  3.771  18.6739
  3.769  18.5606
  3.766  18.5606
  3.763  18.6224
  3.761  18.4988
  3.758  18.3237
  3.755  18.2825
  3.752  18.2825
  3.750  18.2310
  3.747  18.0559
  3.744  17.7469
  3.742  17.5409
  3.739  17.6233
  3.736  17.7984
  3.733  17.7881
  3.731  17.7057
  3.728  17.6233
  3.725  17.5306
  3.723  17.5306
  3.720  17.4379
  3.717  17.2937
  3.715  17.0980
  3.712  16.8611
  3.709  16.6448
  3.707  16.4388
  3.704  16.4182
  3.702  16.4388
  3.699  16.3667
  3.696  16.3358
  3.694  16.3152
  3.691  16.1916
  3.688  16.1607
  3.686  16.1401
  3.683  16.2122
  3.680  16.3358
  3.678  16.4697
  3.675  16.5315
  3.673  16.5933
  3.670  16.6448
  3.667  16.6551
  3.665  16.5521
  3.662  16.5624
  3.660  16.6757
  3.657  16.6242
  3.655  16.5109
  3.652  16.4491
  3.649  16.3358
  3.647  16.2946
  3.644  16.2328
  3.642  16.2019
  3.639  16.2019
  3.637  16.1401
  3.634  16.0474
  3.632  15.9753
  3.629  15.8826
  3.626  15.9341
  3.624  15.8826
  3.621  15.7384
  3.619  15.5942
  3.616  15.4500
  3.614  15.4706
  3.611  15.3779
  3.609  15.2646
  3.606  15.2234
  3.604  15.2543
  3.601  15.2646
  3.599  15.1513
  3.596  15.0380
  3.594  14.9041
  3.591  14.8423
  3.589  14.7290
  3.586  14.6775
  3.584  14.6054
  3.581  14.5436
  3.579  14.5024
  3.576  14.4612
