Name: Altered volcanic tuff
Type: Rock
Class: Igneous
Subclass: Felsic
Particle Size: Whole rock chips
Sample No.: Cup2
Owner: USGS
Wavelength range: 0.40 - 14.05 um
Origin: Cuprite, Nevada

Description: Altered volcanic tuff, reddish brown and tan





Measurement: Directional Hemispherical Reflectance
First Column: X
Second Column: Y
X Units: Wavelength (micrometers)
Y Units: Reflectance (percent)
First X Value: 14.05105
Last X Value: 0.40000
Number of X Values: 2756
Additional Information: None

 14.051   2.6780
 14.013   2.6059
 13.975   2.6162
 13.938   2.6265
 13.900   2.7810
 13.863   2.8428
 13.826   2.9149
 13.790   2.8325
 13.753   2.8222
 13.717   2.8325
 13.680   2.9767
 13.644   2.9767
 13.609   3.0179
 13.573   2.9664
 13.538   3.0488
 13.502   3.0694
 13.467   3.0282
 13.432   3.0076
 13.398   3.0900
 13.363   3.1106
 13.329   3.2342
 13.295   3.2136
 13.261   3.2136
 13.227   3.1930
 13.193   3.2342
 13.160   3.2239
 13.126   3.3681
 13.093   3.4505
 13.060   3.4608
 13.027   3.5020
 12.995   3.6359
 12.962   3.7183
 12.930   3.7595
 12.898   3.7492
 12.866   3.8831
 12.834   3.9243
 12.802   3.9552
 12.771   3.9346
 12.739   3.9243
 12.708   3.8316
 12.677   3.7389
 12.646   3.6359
 12.616   3.5947
 12.585   3.5123
 12.554   3.5432
 12.524   3.4196
 12.494   3.2445
 12.464   3.0797
 12.434   2.9561
 12.404   2.7913
 12.375   2.6574
 12.345   2.4617
 12.316   2.3793
 12.287   2.3484
 12.258   2.5132
 12.229   2.5853
 12.200   2.6162
 12.171   2.7192
 12.143   2.8943
 12.115   2.9767
 12.086   3.2033
 12.058   3.3475
 12.030   3.3784
 12.002   3.3475
 11.975   3.4402
 11.947   3.5123
 11.920   3.6050
 11.892   3.6256
 11.865   3.7183
 11.838   3.7801
 11.811   3.8522
 11.784   3.9346
 11.757   3.9655
 11.731   3.9346
 11.704   3.9964
 11.678   4.0582
 11.652   4.1715
 11.626   4.2230
 11.600   4.2333
 11.574   4.3054
 11.548   4.3981
 11.522   4.4187
 11.497   4.4702
 11.471   4.4496
 11.446   4.5011
 11.421   4.5423
 11.396   4.6350
 11.371   4.5835
 11.346   4.6350
 11.321   4.6865
 11.297   4.8101
 11.272   4.8719
 11.248   4.9234
 11.223   4.9234
 11.199   5.0161
 11.175   4.9852
 11.151   5.0058
 11.127   5.0470
 11.103   5.1191
 11.079   5.1294
 11.056   5.1912
 11.032   5.1912
 11.009   5.2839
 10.985   5.2942
 10.962   5.3972
 10.939   5.4796
 10.916   5.5517
 10.893   5.5414
 10.870   5.4899
 10.848   5.4796
 10.825   5.5208
 10.802   5.4796
 10.780   5.4384
 10.758   5.4899
 10.735   5.6753
 10.713   5.7783
 10.691   5.7989
 10.669   5.7886
 10.647   5.7680
 10.625   5.8195
 10.604   5.9019
 10.582   5.9225
 10.560   5.9740
 10.539   5.9328
 10.518   6.0152
 10.496   6.1388
 10.475   6.3345
 10.454   6.3860
 10.433   6.4787
 10.412   6.5302
 10.391   6.6641
 10.370   6.8186
 10.350   6.9525
 10.329   7.0452
 10.309   7.1173
 10.288   7.1482
 10.268   7.3542
 10.247   7.5808
 10.227   7.6529
 10.207   7.7147
 10.187   7.9207
 10.167   7.9825
 10.147   8.0649
 10.127   8.2297
 10.108   8.3739
 10.088   8.5284
 10.068   8.7447
 10.049   8.9610
 10.029   9.0537
 10.010   9.1155
  9.991   9.3524
  9.972   9.6305
  9.952   9.8262
  9.933   9.9292
  9.914  10.1146
  9.895  10.2279
  9.877  10.3206
  9.858  10.3000
  9.839  10.3206
  9.821  10.4030
  9.802  10.5884
  9.783  10.7017
  9.765  10.7841
  9.747  10.9077
  9.728  11.0416
  9.710  11.1652
  9.692  11.3506
  9.674  11.4845
  9.656  11.6184
  9.638  11.6493
  9.620  11.7317
  9.602  11.7523
  9.585  11.8141
  9.567  11.8244
  9.549  11.8038
  9.532  11.8141
  9.514  11.8656
  9.497  11.9274
  9.479  12.0819
  9.462  12.1128
  9.445  12.1437
  9.428  12.2364
  9.411  12.4012
  9.394  12.4733
  9.377  12.5660
  9.360  12.6690
  9.343  12.7617
  9.326  12.8441
  9.309  12.9574
  9.293  12.9883
  9.276  13.1016
  9.259  13.2664
  9.243  13.5342
  9.226  13.7196
  9.210  13.8741
  9.194  13.9462
  9.178  13.9771
  9.161  13.9668
  9.145  14.0080
  9.129  13.9462
  9.113  13.9256
  9.097  13.9359
  9.081  13.9874
  9.065  14.0080
  9.049  13.9771
  9.034  13.8123
  9.018  13.6784
  9.002  13.6063
  8.987  13.7093
  8.971  13.7505
  8.956  13.7402
  8.940  13.7299
  8.925  13.8020
  8.909  13.7299
  8.894  13.6784
  8.879  13.6166
  8.864  13.5342
  8.849  13.5033
  8.834  13.5033
  8.819  13.5033
  8.804  13.5342
  8.789  13.4209
  8.774  13.2767
  8.759  13.2561
  8.744  13.2458
  8.730  13.1428
  8.715  13.0810
  8.700  12.9574
  8.686  12.8441
  8.671  12.7102
  8.657  12.5145
  8.642  12.2467
  8.628  12.0407
  8.614  11.9274
  8.599  11.9480
  8.585  11.9274
  8.571  11.9789
  8.557  12.0716
  8.543  12.0304
  8.529  11.8347
  8.515  11.7008
  8.501  11.5772
  8.487  11.4742
  8.473  11.2991
  8.459  11.0828
  8.445  10.8459
  8.431  10.6090
  8.418  10.3206
  8.404  10.0425
  8.391   9.7335
  8.377   9.4039
  8.363   9.1464
  8.350   9.0743
  8.337   9.0949
  8.323   9.1052
  8.310   9.0640
  8.297   9.0125
  8.283   8.8889
  8.270   8.8271
  8.257   8.8374
  8.244   8.7550
  8.231   8.6005
  8.218   8.4975
  8.205   8.3739
  8.192   8.2915
  8.179   8.1164
  8.166   7.9310
  8.153   7.7765
  8.140   7.5602
  8.128   7.1997
  8.115   6.9422
  8.102   6.7362
  8.090   6.4684
  8.077   6.1594
  8.064   5.9019
  8.052   5.7165
  8.039   5.5311
  8.027   5.2530
  8.015   5.1294
  8.002   5.0058
  7.990   4.8822
  7.978   4.7483
  7.965   4.6144
  7.953   4.5114
  7.941   4.3775
  7.929   4.2539
  7.917   4.2436
  7.905   4.2230
  7.893   4.0891
  7.881   3.9037
  7.869   3.7492
  7.857   3.6256
  7.845   3.6050
  7.833   3.5638
  7.821   3.4608
  7.809   3.3372
  7.798   3.3063
  7.786   3.2651
  7.774   3.1827
  7.763   3.0797
  7.751   3.0385
  7.739   3.0694
  7.728   3.0900
  7.716   2.9870
  7.705   2.8943
  7.694   2.8222
  7.682   2.7604
  7.671   2.6780
  7.659   2.6677
  7.648   2.6368
  7.637   2.5853
  7.626   2.5441
  7.614   2.5441
  7.603   2.5029
  7.592   2.4926
  7.581   2.4514
  7.570   2.4308
  7.559   2.3999
  7.548   2.4102
  7.537   2.3690
  7.526   2.3999
  7.515   2.3896
  7.504   2.3690
  7.493   2.3793
  7.483   2.3793
  7.472   2.3072
  7.461   2.3175
  7.450   2.3896
  7.440   2.3793
  7.429   2.2660
  7.418   2.2866
  7.408   2.2866
  7.397   2.2969
  7.387   2.2763
  7.376   2.2557
  7.366   2.2660
  7.355   2.2763
  7.345   2.2866
  7.334   2.2763
  7.324   2.2351
  7.314   2.2763
  7.303   2.2969
  7.293   2.2763
  7.283   2.2660
  7.273   2.3381
  7.263   2.3793
  7.252   2.3896
  7.242   2.3793
  7.232   2.3278
  7.222   2.3175
  7.212   2.3690
  7.202   2.3587
  7.192   2.3793
  7.182   2.3896
  7.172   2.3793
  7.162   2.3072
  7.152   2.3072
  7.143   2.3278
  7.133   2.3896
  7.123   2.3793
  7.113   2.3793
  7.103   2.4205
  7.094   2.3999
  7.084   2.3896
  7.074   2.4102
  7.065   2.3896
  7.055   2.3381
  7.046   2.3381
  7.036   2.4617
  7.026   2.4617
  7.017   2.3690
  7.007   2.3278
  6.998   2.4102
  6.989   2.3690
  6.979   2.3999
  6.970   2.3999
  6.960   2.3690
  6.951   2.4102
  6.942   2.4720
  6.932   2.5235
  6.923   2.5235
  6.914   2.4617
  6.905   2.4308
  6.896   2.4205
  6.886   2.4926
  6.877   2.5235
  6.868   2.5132
  6.859   2.5029
  6.850   2.5029
  6.841   2.5132
  6.832   2.5132
  6.823   2.5544
  6.814   2.5750
  6.805   2.4926
  6.796   2.5235
  6.787   2.5441
  6.778   2.5441
  6.770   2.5853
  6.761   2.6471
  6.752   2.6780
  6.743   2.6677
  6.734   2.6471
  6.726   2.6574
  6.717   2.6677
  6.708   2.7089
  6.700   2.7192
  6.691   2.7501
  6.682   2.7810
  6.674   2.8428
  6.665   2.8119
  6.657   2.7501
  6.648   2.7604
  6.640   2.8325
  6.631   2.8634
  6.623   2.8119
  6.614   2.8016
  6.606   2.8222
  6.597   2.8325
  6.589   2.8737
  6.581   2.9046
  6.572   2.8531
  6.564   2.8016
  6.556   2.8737
  6.547   2.9149
  6.539   2.8943
  6.531   2.8840
  6.523   2.9149
  6.514   2.9561
  6.506   3.0179
  6.498   3.0797
  6.490   3.1312
  6.482   3.1621
  6.474   3.1518
  6.466   3.1724
  6.458   3.1930
  6.450   3.2033
  6.442   3.1930
  6.434   3.1106
  6.426   3.0900
  6.418   3.1106
  6.410   3.1518
  6.402   3.1518
  6.394   3.1724
  6.386   3.1827
  6.378   3.1827
  6.370   3.1518
  6.363   3.1209
  6.355   3.1106
  6.347   3.0694
  6.339   2.9458
  6.332   2.9355
  6.324   2.9355
  6.316   2.8943
  6.308   2.9149
  6.301   2.9561
  6.293   2.8531
  6.286   2.7604
  6.278   2.7398
  6.270   2.7295
  6.263   2.7192
  6.255   2.6986
  6.248   2.6677
  6.240   2.6265
  6.233   2.5853
  6.225   2.6059
  6.218   2.5647
  6.210   2.5132
  6.203   2.5132
  6.195   2.5235
  6.188   2.4823
  6.181   2.5132
  6.173   2.5132
  6.166   2.4926
  6.159   2.4617
  6.151   2.5029
  6.144   2.5441
  6.137   2.5338
  6.130   2.5029
  6.122   2.5338
  6.115   2.5441
  6.108   2.5647
  6.101   2.5544
  6.094   2.5338
  6.086   2.5544
  6.079   2.5853
  6.072   2.5235
  6.065   2.5338
  6.058   2.6162
  6.051   2.6471
  6.044   2.6677
  6.037   2.6780
  6.030   2.6986
  6.023   2.7810
  6.016   2.8428
  6.009   2.8943
  6.002   2.9149
  5.995   2.9355
  5.988   2.9664
  5.981   2.9973
  5.974   3.0282
  5.967   3.0694
  5.960   3.0694
  5.954   3.0900
  5.947   3.1312
  5.940   3.1518
  5.933   3.2033
  5.926   3.2445
  5.920   3.2754
  5.913   3.3372
  5.906   3.3990
  5.899   3.4608
  5.893   3.4814
  5.886   3.5123
  5.879   3.5947
  5.873   3.6256
  5.866   3.6153
  5.859   3.6771
  5.853   3.7183
  5.846   3.6977
  5.840   3.6874
  5.833   3.7698
  5.827   3.8316
  5.820   3.8831
  5.813   3.8728
  5.807   3.8522
  5.800   3.8419
  5.794   3.8419
  5.788   3.8316
  5.781   3.8419
  5.775   3.8831
  5.768   3.9346
  5.762   3.9037
  5.755   3.8831
  5.749   3.8522
  5.743   3.8831
  5.736   3.9140
  5.730   3.9346
  5.724   3.9449
  5.717   3.9346
  5.711   3.9243
  5.705   3.9758
  5.698   3.9964
  5.692   4.0067
  5.686   3.9655
  5.680   3.9552
  5.674   3.9243
  5.667   3.9449
  5.661   3.9861
  5.655   3.9449
  5.649   3.8934
  5.643   3.8728
  5.637   3.8419
  5.630   3.8316
  5.624   3.8213
  5.618   3.8007
  5.612   3.7801
  5.606   3.8007
  5.600   3.8007
  5.594   3.8213
  5.588   3.8110
  5.582   3.8213
  5.576   3.8831
  5.570   3.9552
  5.564   3.9449
  5.558   3.9243
  5.552   3.9243
  5.546   3.9552
  5.540   3.9861
  5.534   3.9655
  5.528   3.9449
  5.523   4.0170
  5.517   4.0788
  5.511   4.1200
  5.505   4.1818
  5.499   4.2127
  5.493   4.2024
  5.487   4.2024
  5.482   4.2333
  5.476   4.2745
  5.470   4.2951
  5.464   4.3569
  5.459   4.4187
  5.453   4.4187
  5.447   4.4187
  5.441   4.4599
  5.436   4.4702
  5.430   4.5011
  5.424   4.4393
  5.419   4.3775
  5.413   4.3775
  5.407   4.3363
  5.402   4.2436
  5.396   4.1509
  5.390   4.0376
  5.385   4.0067
  5.379   3.9758
  5.374   3.8522
  5.368   3.8007
  5.363   3.7595
  5.357   3.7080
  5.352   3.6874
  5.346   3.6359
  5.341   3.6256
  5.335   3.6153
  5.330   3.5947
  5.324   3.6359
  5.319   3.6874
  5.313   3.6668
  5.308   3.6874
  5.302   3.7286
  5.297   3.8007
  5.291   3.8831
  5.286   3.9243
  5.281   3.9346
  5.275   3.9861
  5.270   4.0994
  5.265   4.1818
  5.259   4.2333
  5.254   4.3260
  5.249   4.4187
  5.243   4.4908
  5.238   4.6041
  5.233   4.7586
  5.227   4.8822
  5.222   5.0058
  5.217   5.1294
  5.212   5.2633
  5.206   5.3560
  5.201   5.4796
  5.196   5.5517
  5.191   5.5723
  5.186   5.5929
  5.180   5.6341
  5.175   5.7062
  5.170   5.7268
  5.165   5.7474
  5.160   5.8092
  5.155   5.8504
  5.150   5.8607
  5.145   5.9019
  5.139   5.9122
  5.134   5.9019
  5.129   5.9122
  5.124   5.9328
  5.119   5.9740
  5.114   5.9946
  5.109   6.0049
  5.104   6.0255
  5.099   6.0461
  5.094   6.0461
  5.089   6.0358
  5.084   5.9946
  5.079   5.9637
  5.074   5.9534
  5.069   5.9225
  5.064   5.9019
  5.059   5.8813
  5.054   5.8607
  5.049   5.8298
  5.044   5.7989
  5.040   5.7886
  5.035   5.8298
  5.030   5.8916
  5.025   5.8916
  5.020   5.9122
  5.015   5.8916
  5.010   5.9019
  5.005   5.9534
  5.001   5.9843
  4.996   6.0358
  4.991   6.0564
  4.986   6.0564
  4.981   6.0873
  4.977   6.1491
  4.972   6.2109
  4.967   6.2830
  4.962   6.3757
  4.958   6.4581
  4.953   6.6229
  4.948   6.7568
  4.943   6.8289
  4.939   6.9113
  4.934   7.0246
  4.929   7.1688
  4.925   7.3542
  4.920   7.5396
  4.915   7.7456
  4.911   7.9413
  4.906   8.1782
  4.901   8.4048
  4.897   8.6005
  4.892   8.8271
  4.888   9.0743
  4.883   9.3112
  4.878   9.5378
  4.874   9.7541
  4.869   9.9498
  4.865  10.1146
  4.860  10.3000
  4.856  10.4442
  4.851  10.5781
  4.846  10.7120
  4.842  10.8562
  4.837  11.0313
  4.833  11.1240
  4.828  11.1858
  4.824  11.2888
  4.819  11.3815
  4.815  11.4948
  4.810  11.6390
  4.806  11.7626
  4.802  11.8553
  4.797  11.8862
  4.793  11.9171
  4.788  11.9686
  4.784  12.0819
  4.779  12.1643
  4.775  12.1849
  4.771  12.2055
  4.766  12.2673
  4.762  12.3291
  4.758  12.4836
  4.753  12.5660
  4.749  12.5866
  4.744  12.6175
  4.740  12.6484
  4.736  12.6278
  4.731  12.6278
  4.727  12.6587
  4.723  12.6793
  4.719  12.7205
  4.714  12.7617
  4.710  12.8029
  4.706  12.8235
  4.701  12.7926
  4.697  12.8029
  4.693  12.8132
  4.689  12.7823
  4.684  12.8029
  4.680  12.7720
  4.676  12.7205
  4.672  12.7514
  4.668  12.8544
  4.663  12.9677
  4.659  13.0295
  4.655  13.0398
  4.651  13.0192
  4.647  13.0913
  4.643  13.1840
  4.638  13.2561
  4.634  13.4106
  4.630  13.5239
  4.626  13.6475
  4.622  13.6784
  4.618  13.7402
  4.614  13.8432
  4.610  13.9771
  4.605  14.1316
  4.601  14.1625
  4.597  14.2037
  4.593  14.2861
  4.589  14.3891
  4.585  14.4303
  4.581  14.5127
  4.577  14.6157
  4.573  14.6672
  4.569  14.7393
  4.565  14.8114
  4.561  14.8938
  4.557  14.9659
  4.553  14.9659
  4.549  15.0174
  4.545  15.0998
  4.541  15.1410
  4.537  15.1410
  4.533  15.1719
  4.529  15.2646
  4.525  15.2749
  4.521  15.2028
  4.517  15.2028
  4.513  15.1513
  4.509  15.0998
  4.505  15.0689
  4.502  15.0380
  4.498  15.0998
  4.494  15.1616
  4.490  15.1410
  4.486  15.0998
  4.482  15.0998
  4.478  15.1616
  4.474  15.1925
  4.470  15.2131
  4.467  15.2749
  4.463  15.3161
  4.459  15.3058
  4.455  15.3470
  4.451  15.4191
  4.447  15.4809
  4.444  15.5839
  4.440  15.6869
  4.436  15.6766
  4.432  15.6354
  4.428  15.6972
  4.425  15.7590
  4.421  15.8208
  4.417  15.8723
  4.413  15.8723
  4.410  15.9650
  4.406  16.0680
  4.402  16.0989
  4.398  16.1813
  4.395  16.2843
  4.391  16.3667
  4.387  16.4182
  4.384  16.5006
  4.380  16.6139
  4.376  16.7890
  4.372  16.9229
  4.369  16.9950
  4.365  17.0877
  4.361  17.1598
  4.358  17.3040
  4.354  17.4379
  4.350  17.5615
  4.347  17.6027
  4.343  17.6748
  4.340  17.7675
  4.336  17.8808
  4.332  17.9735
  4.329  18.0868
  4.325  18.1795
  4.321  18.2104
  4.318  18.3031
  4.314  18.4988
  4.311  18.6739
  4.307  18.7769
  4.304  18.7975
  4.300  18.8387
  4.296  18.9417
  4.293  19.0447
  4.289  19.1374
  4.286  19.2301
  4.282  19.3022
  4.279  19.4361
  4.275  19.5082
  4.272  19.6318
  4.268  19.7039
  4.265  19.7863
  4.261  19.9099
  4.258  19.9511
  4.254  19.9820
  4.251  20.1365
  4.247  20.1983
  4.244  20.2601
  4.240  20.3425
  4.237  20.4867
  4.233  20.5691
  4.230  20.6000
  4.226  20.6000
  4.223  20.5691
  4.219  20.6309
  4.216  20.6618
  4.213  20.6309
  4.209  20.6206
  4.206  20.5176
  4.202  20.4249
  4.199  20.4249
  4.196  20.4970
  4.192  20.5485
  4.189  20.6103
  4.185  20.7030
  4.182  20.8266
  4.179  20.8987
  4.175  20.9914
  4.172  21.0841
  4.169  21.0738
  4.165  21.1253
  4.162  21.2283
  4.159  21.2901
  4.155  21.4034
  4.152  21.6300
  4.149  21.7536
  4.145  21.7742
  4.142  21.7845
  4.139  21.8566
  4.135  21.9596
  4.132  22.1759
  4.129  22.3613
  4.126  22.3304
  4.122  22.3819
  4.119  22.4952
  4.116  22.6291
  4.112  22.7630
  4.109  22.8557
  4.106  22.9484
  4.103  23.0514
  4.099  23.1647
  4.096  23.2574
  4.093  23.3810
  4.090  23.4737
  4.086  23.4943
  4.083  23.5355
  4.080  23.6591
  4.077  23.7209
  4.074  23.8342
  4.070  23.9475
  4.067  24.1020
  4.064  24.2359
  4.061  24.2050
  4.058  24.2977
  4.055  24.4728
  4.051  24.4007
  4.048  24.2977
  4.045  24.4522
  4.042  24.5243
  4.039  24.5552
  4.036  24.6994
  4.032  24.7818
  4.029  24.7921
  4.026  24.7715
  4.023  24.7406
  4.020  24.7921
  4.017  24.9363
  4.014  24.9775
  4.011  24.9775
  4.008  25.0599
  4.004  25.0496
  4.001  24.9878
  3.998  24.9363
  3.995  24.9981
  3.992  25.1011
  3.989  25.1011
  3.986  25.0908
  3.983  25.1526
  3.980  25.1320
  3.977  25.1011
  3.974  25.1629
  3.971  25.1320
  3.968  25.1423
  3.965  25.2144
  3.962  25.2659
  3.959  25.3277
  3.956  25.3586
  3.953  25.3586
  3.950  25.3277
  3.947  25.3483
  3.944  25.3689
  3.941  25.3998
  3.938  25.5028
  3.935  25.5131
  3.932  25.3689
  3.929  25.3586
  3.926  25.3998
  3.923  25.3792
  3.920  25.3483
  3.917  25.3277
  3.914  25.4307
  3.911  25.4719
  3.908  25.4410
  3.905  25.3380
  3.902  25.2968
  3.899  25.4410
  3.896  25.4410
  3.893  25.3277
  3.890  25.2350
  3.887  25.1629
  3.884  25.1938
  3.882  25.1732
  3.879  25.1732
  3.876  25.1938
  3.873  25.1114
  3.870  24.9981
  3.867  24.9672
  3.864  24.9775
  3.861  24.9878
  3.858  24.9981
  3.856  24.9672
  3.853  24.9672
  3.850  24.9569
  3.847  24.9981
  3.844  24.9672
  3.841  24.9260
  3.838  24.9054
  3.836  24.8642
  3.833  24.8127
  3.830  24.7097
  3.827  24.6376
  3.824  24.6685
  3.822  24.6685
  3.819  24.6788
  3.816  24.6376
  3.813  24.5861
  3.810  24.5037
  3.807  24.3801
  3.805  24.4213
  3.802  24.4522
  3.799  24.3698
  3.796  24.3698
  3.794  24.3286
  3.791  24.2359
  3.788  24.2050
  3.785  24.2359
  3.782  24.2256
  3.780  24.1226
  3.777  23.9681
  3.774  23.8960
  3.771  23.8548
  3.769  23.8548
  3.766  23.7930
  3.763  23.6694
  3.761  23.6797
  3.758  23.6900
  3.755  23.5973
  3.752  23.4531
  3.750  23.2677
  3.747  23.1235
  3.744  22.9999
  3.742  22.9690
  3.739  22.9999
  3.736  23.0102
  3.733  22.9072
  3.731  22.9072
  3.728  22.8763
  3.725  22.8145
  3.723  22.7321
  3.720  22.7218
  3.717  22.6806
  3.715  22.6394
  3.712  22.6806
  3.709  22.5570
  3.707  22.3819
  3.704  22.3819
  3.702  22.3510
  3.699  22.2583
  3.696  22.2068
  3.694  22.2068
  3.691  22.1553
  3.688  22.0214
  3.686  21.8463
  3.683  21.8566
  3.680  21.9184
  3.678  21.9493
  3.675  21.8669
  3.673  21.8463
  3.670  21.8051
  3.667  21.7330
  3.665  21.6918
  3.662  21.6506
  3.660  21.5682
  3.657  21.4446
  3.655  21.2489
  3.652  21.1459
  3.649  21.1253
  3.647  21.1356
  3.644  21.1562
  3.642  21.0738
  3.639  20.9502
  3.637  20.8266
  3.634  20.7545
  3.632  20.7339
  3.629  20.7133
  3.626  20.6000
  3.624  20.3631
  3.621  20.3013
  3.619  20.2601
  3.616  20.1777
  3.614  20.1159
  3.611  20.0850
  3.609  19.9511
  3.606  19.8481
  3.604  19.8069
  3.601  19.7039
  3.599  19.5391
  3.596  19.4464
  3.594  19.3537
  3.591  19.3434
  3.589  19.2816
  3.586  19.2301
  3.584  19.1271
  3.581  19.0241
  3.579  18.8902
