Name: Altered volcanic tuff
Type: Rock
Class: Igneous
Subclass: Felsic
Particle Size: Whole rock chips
Sample No.: cup3
Owner: USGS
Wavelength range: 0.40 - 14.05 um
Origin: Cuprite, Nevada

Description: Altered volcanic tuff, white





Measurement: Directional Hemispherical Reflectance
First Column: X
Second Column: Y
X Units: Wavelength (micrometers)
Y Units: Reflectance (percent)
First X Value: 14.05105
Last X Value: 0.40000
Number of X Values: 2756
Additional Information: None

 14.051   3.1106
 14.013   3.1621
 13.975   3.4505
 13.938   3.3784
 13.900   3.4299
 13.863   3.4814
 13.826   3.5844
 13.790   3.5432
 13.753   3.6462
 13.717   3.5638
 13.680   3.6050
 13.644   3.6256
 13.609   3.7801
 13.573   3.8007
 13.538   3.8522
 13.502   3.7904
 13.467   3.8625
 13.432   3.9140
 13.398   3.9243
 13.363   3.9552
 13.329   4.2024
 13.295   4.2024
 13.261   4.1921
 13.227   4.2436
 13.193   4.3466
 13.160   4.4084
 13.126   4.4290
 13.093   4.4084
 13.060   4.5526
 13.027   4.6968
 12.995   4.8616
 12.962   4.8410
 12.930   5.0264
 12.898   5.2221
 12.866   5.3560
 12.834   5.5105
 12.802   5.5620
 12.771   5.4384
 12.739   5.4693
 12.708   5.3869
 12.677   5.2839
 12.646   5.0985
 12.616   4.9440
 12.585   4.8204
 12.554   4.7174
 12.524   4.4908
 12.494   4.3363
 12.464   4.0067
 12.434   3.6359
 12.404   3.2651
 12.375   3.0488
 12.345   2.6986
 12.316   2.4514
 12.287   2.3793
 12.258   2.4617
 12.229   2.5544
 12.200   2.7501
 12.171   2.8634
 12.143   3.0076
 12.115   3.0591
 12.086   3.1415
 12.058   3.1518
 12.030   3.2754
 12.002   3.3166
 11.975   3.4196
 11.947   3.4402
 11.920   3.4711
 11.892   3.5432
 11.865   3.6977
 11.838   3.7492
 11.811   3.8831
 11.784   3.9964
 11.757   4.0891
 11.731   4.0788
 11.704   4.1097
 11.678   4.2024
 11.652   4.2951
 11.626   4.2848
 11.600   4.3569
 11.574   4.4393
 11.548   4.5629
 11.522   4.5835
 11.497   4.7071
 11.471   4.7792
 11.446   4.8822
 11.421   4.9028
 11.396   4.9440
 11.371   4.9440
 11.346   4.9440
 11.321   4.9337
 11.297   5.0676
 11.272   5.1912
 11.248   5.3045
 11.223   5.3148
 11.199   5.3766
 11.175   5.3972
 11.151   5.5208
 11.127   5.5929
 11.103   5.6135
 11.079   5.5723
 11.056   5.5826
 11.032   5.6444
 11.009   5.7680
 10.985   5.8401
 10.962   5.9122
 10.939   5.8710
 10.916   5.9122
 10.893   5.8916
 10.870   5.9225
 10.848   5.9740
 10.825   6.0976
 10.802   6.0976
 10.780   6.1182
 10.758   6.1388
 10.735   6.2212
 10.713   6.2315
 10.691   6.3345
 10.669   6.3757
 10.647   6.4478
 10.625   6.4478
 10.604   6.5714
 10.582   6.6126
 10.560   6.6744
 10.539   6.7362
 10.518   6.8186
 10.496   6.9525
 10.475   7.1482
 10.454   7.1585
 10.433   7.1997
 10.412   7.3130
 10.391   7.4469
 10.370   7.4881
 10.350   7.6220
 10.329   7.7559
 10.309   7.9207
 10.288   8.0855
 10.268   8.3018
 10.247   8.4563
 10.227   8.6314
 10.207   8.7550
 10.187   8.9816
 10.167   9.0846
 10.147   9.3318
 10.127   9.5790
 10.108   9.7747
 10.088   9.9189
 10.068  10.0940
 10.049  10.2382
 10.029  10.5266
 10.010  10.7944
  9.991  10.9592
  9.972  11.1137
  9.952  11.4227
  9.933  11.6905
  9.914  11.8965
  9.895  11.9583
  9.877  12.1437
  9.858  12.3497
  9.839  12.6690
  9.821  12.8647
  9.802  13.1016
  9.783  13.3179
  9.765  13.5033
  9.747  13.6887
  9.728  13.9565
  9.710  14.1625
  9.692  14.3685
  9.674  14.5230
  9.656  14.7599
  9.638  14.9659
  9.620  15.2646
  9.602  15.4912
  9.585  15.7075
  9.567  15.8105
  9.549  16.1195
  9.532  16.4182
  9.514  16.6551
  9.497  16.9023
  9.479  17.2628
  9.462  17.7160
  9.445  18.2619
  9.428  18.6430
  9.411  19.0859
  9.394  19.6936
  9.377  20.4352
  9.360  21.0944
  9.343  21.8669
  9.326  22.6703
  9.309  23.4016
  9.293  23.9681
  9.276  24.6582
  9.259  25.5131
  9.243  26.2547
  9.226  26.8830
  9.210  27.5731
  9.194  28.0984
  9.178  28.5001
  9.161  28.8606
  9.145  29.2623
  9.129  29.5404
  9.113  29.8082
  9.097  30.1172
  9.081  30.4468
  9.065  30.5704
  9.049  30.6528
  9.034  30.6116
  9.018  30.5395
  9.002  30.4777
  8.987  30.3747
  8.971  30.0657
  8.956  29.7464
  8.940  29.4065
  8.925  29.0357
  8.909  28.6237
  8.894  28.2941
  8.879  27.8615
  8.864  27.3465
  8.849  26.8212
  8.834  26.4401
  8.819  25.9869
  8.804  25.4925
  8.789  25.0084
  8.774  24.5861
  8.759  24.1638
  8.744  23.7827
  8.730  23.3398
  8.715  22.8557
  8.700  22.4334
  8.686  22.1038
  8.671  21.6815
  8.657  21.2798
  8.642  20.8987
  8.628  20.5279
  8.614  20.3322
  8.599  20.3219
  8.585  20.2704
  8.571  20.3116
  8.557  20.2292
  8.543  20.0232
  8.529  19.8687
  8.515  19.7348
  8.501  19.3537
  8.487  18.9520
  8.473  18.6327
  8.459  18.3134
  8.445  17.8602
  8.431  17.3761
  8.418  16.8302
  8.404  16.2534
  8.391  15.7487
  8.377  15.4706
  8.363  15.5015
  8.350  15.7281
  8.337  15.9959
  8.323  16.1916
  8.310  16.2019
  8.297  16.2019
  8.283  16.1813
  8.270  16.1298
  8.257  16.0371
  8.244  15.8414
  8.231  15.6560
  8.218  15.5942
  8.205  15.4500
  8.192  15.2337
  8.179  14.9659
  8.166  14.6363
  8.153  14.2346
  8.140  13.8226
  8.128  13.4106
  8.115  13.0810
  8.102  12.6793
  8.090  12.2467
  8.077  11.7935
  8.064  11.4639
  8.052  11.1034
  8.039  10.8150
  8.027  10.5060
  8.015  10.1867
  8.002   9.9292
  7.990   9.7129
  7.978   9.4245
  7.965   9.1567
  7.953   8.8374
  7.941   8.5387
  7.929   8.1885
  7.917   7.7868
  7.905   7.3542
  7.893   6.9422
  7.881   6.4684
  7.869   6.0255
  7.857   5.5517
  7.845   5.1294
  7.833   4.7895
  7.821   4.4496
  7.809   4.0891
  7.798   3.8419
  7.786   3.6050
  7.774   3.3063
  7.763   3.0076
  7.751   2.7707
  7.739   2.5647
  7.728   2.4205
  7.716   2.2351
  7.705   2.0806
  7.694   1.9364
  7.682   1.8952
  7.671   1.7922
  7.659   1.6995
  7.648   1.6480
  7.637   1.6068
  7.626   1.4317
  7.614   1.3287
  7.603   1.2875
  7.592   1.2875
  7.581   1.1845
  7.570   1.1021
  7.559   1.0403
  7.548   1.0300
  7.537   0.9682
  7.526   0.9682
  7.515   1.0094
  7.504   1.0094
  7.493   0.9476
  7.483   0.9373
  7.472   0.9064
  7.461   0.8549
  7.450   0.7828
  7.440   0.8240
  7.429   0.8137
  7.418   0.8755
  7.408   0.9270
  7.397   0.9270
  7.387   0.8755
  7.376   0.8755
  7.366   0.8755
  7.355   0.9167
  7.345   0.8755
  7.334   0.8446
  7.324   0.8137
  7.314   0.8240
  7.303   0.8034
  7.293   0.8343
  7.283   0.8755
  7.273   0.8961
  7.263   0.8652
  7.252   0.8858
  7.242   0.8652
  7.232   0.8961
  7.222   0.9064
  7.212   0.8652
  7.202   0.8961
  7.192   0.9888
  7.182   0.9064
  7.172   0.8858
  7.162   0.9167
  7.152   0.9888
  7.143   0.9682
  7.133   0.9579
  7.123   0.8961
  7.113   0.9167
  7.103   0.8961
  7.094   0.9270
  7.084   0.9373
  7.074   0.9888
  7.065   1.0094
  7.055   0.9785
  7.046   0.9476
  7.036   0.9682
  7.026   1.0094
  7.017   1.0300
  7.007   0.9682
  6.998   0.9476
  6.989   0.9682
  6.979   0.9785
  6.970   0.9167
  6.960   0.9785
  6.951   1.0403
  6.942   1.0815
  6.932   1.0609
  6.923   1.0918
  6.914   1.1124
  6.905   1.1021
  6.896   1.0300
  6.886   0.9888
  6.877   1.0197
  6.868   1.0815
  6.859   1.1330
  6.850   1.1227
  6.841   1.0815
  6.832   1.1433
  6.823   1.2051
  6.814   1.2051
  6.805   1.1742
  6.796   1.1639
  6.787   1.1536
  6.778   1.2257
  6.770   1.2154
  6.761   1.2257
  6.752   1.2360
  6.743   1.3081
  6.734   1.3596
  6.726   1.3802
  6.717   1.3390
  6.708   1.3390
  6.700   1.3493
  6.691   1.4523
  6.682   1.4317
  6.674   1.4317
  6.665   1.4420
  6.657   1.4420
  6.648   1.4523
  6.640   1.5141
  6.631   1.5450
  6.623   1.5450
  6.614   1.5038
  6.606   1.5038
  6.597   1.5553
  6.589   1.5862
  6.581   1.5553
  6.572   1.5862
  6.564   1.6892
  6.556   1.6686
  6.547   1.6274
  6.539   1.6686
  6.531   1.6789
  6.523   1.7613
  6.514   1.8128
  6.506   1.7098
  6.498   1.6892
  6.490   1.8437
  6.482   1.8849
  6.474   1.8643
  6.466   1.8643
  6.458   1.9364
  6.450   1.9879
  6.442   1.9673
  6.434   1.9055
  6.426   1.8952
  6.418   1.9467
  6.410   2.0291
  6.402   2.0291
  6.394   2.0085
  6.386   2.0085
  6.378   1.9982
  6.370   1.9364
  6.363   1.9673
  6.355   2.0085
  6.347   2.0291
  6.339   1.9673
  6.332   1.9158
  6.324   1.9055
  6.316   1.8849
  6.308   1.8128
  6.301   1.8025
  6.293   1.8540
  6.286   1.8334
  6.278   1.7510
  6.270   1.7613
  6.263   1.7819
  6.255   1.8025
  6.248   1.8231
  6.240   1.7819
  6.233   1.7510
  6.225   1.7510
  6.218   1.6995
  6.210   1.6892
  6.203   1.6892
  6.195   1.6995
  6.188   1.6892
  6.181   1.6892
  6.173   1.6480
  6.166   1.6171
  6.159   1.5759
  6.151   1.5759
  6.144   1.5656
  6.137   1.6068
  6.130   1.6583
  6.122   1.6892
  6.115   1.6583
  6.108   1.6377
  6.101   1.5862
  6.094   1.5965
  6.086   1.5862
  6.079   1.6068
  6.072   1.6583
  6.065   1.6892
  6.058   1.6583
  6.051   1.7098
  6.044   1.7201
  6.037   1.6480
  6.030   1.6686
  6.023   1.7201
  6.016   1.7201
  6.009   1.7510
  6.002   1.7613
  5.995   1.7819
  5.988   1.8231
  5.981   1.8643
  5.974   1.8643
  5.967   1.8952
  5.960   1.9055
  5.954   1.9158
  5.947   1.9261
  5.940   1.9879
  5.933   2.1115
  5.926   2.1424
  5.920   2.1012
  5.913   2.1012
  5.906   2.1218
  5.899   2.1527
  5.893   2.1939
  5.886   2.2454
  5.879   2.3484
  5.873   2.4205
  5.866   2.3896
  5.859   2.4102
  5.853   2.4205
  5.846   2.3793
  5.840   2.3381
  5.833   2.3587
  5.827   2.3793
  5.820   2.4102
  5.813   2.3793
  5.807   2.3690
  5.800   2.4102
  5.794   2.4205
  5.788   2.3793
  5.781   2.3175
  5.775   2.2969
  5.768   2.3381
  5.762   2.3793
  5.755   2.3690
  5.749   2.3381
  5.743   2.3793
  5.736   2.4411
  5.730   2.4308
  5.724   2.3896
  5.717   2.4308
  5.711   2.4617
  5.705   2.4926
  5.698   2.4720
  5.692   2.5441
  5.686   2.5647
  5.680   2.5132
  5.674   2.5544
  5.667   2.6162
  5.661   2.5750
  5.655   2.5750
  5.649   2.5750
  5.643   2.5544
  5.637   2.5956
  5.630   2.6059
  5.624   2.6059
  5.618   2.6162
  5.612   2.6059
  5.606   2.6471
  5.600   2.6677
  5.594   2.6265
  5.588   2.5853
  5.582   2.6162
  5.576   2.6471
  5.570   2.6677
  5.564   2.6677
  5.558   2.6265
  5.552   2.5853
  5.546   2.6162
  5.540   2.6986
  5.534   2.7604
  5.528   2.8016
  5.523   2.8428
  5.517   2.8222
  5.511   2.8222
  5.505   2.8222
  5.499   2.8634
  5.493   2.8428
  5.487   2.7810
  5.482   2.8222
  5.476   2.9046
  5.470   2.8943
  5.464   2.8531
  5.459   2.8737
  5.453   2.9149
  5.447   2.9458
  5.441   2.9355
  5.436   2.9149
  5.430   2.9149
  5.424   2.8840
  5.419   2.8737
  5.413   2.8634
  5.407   2.8119
  5.402   2.7501
  5.396   2.7192
  5.390   2.6677
  5.385   2.6471
  5.379   2.6059
  5.374   2.5544
  5.368   2.5132
  5.363   2.5338
  5.357   2.5029
  5.352   2.5132
  5.346   2.5029
  5.341   2.4617
  5.335   2.3999
  5.330   2.4308
  5.324   2.5029
  5.319   2.5029
  5.313   2.4720
  5.308   2.4514
  5.302   2.4514
  5.297   2.5235
  5.291   2.5338
  5.286   2.5029
  5.281   2.5338
  5.275   2.5647
  5.270   2.5956
  5.265   2.6059
  5.259   2.6059
  5.254   2.6574
  5.249   2.6780
  5.243   2.7192
  5.238   2.7810
  5.233   2.8016
  5.227   2.8222
  5.222   2.8840
  5.217   2.9149
  5.212   2.9767
  5.206   3.0282
  5.201   3.0900
  5.196   3.1518
  5.191   3.2136
  5.186   3.2548
  5.180   3.2548
  5.175   3.2651
  5.170   3.3372
  5.165   3.4093
  5.160   3.3990
  5.155   3.3475
  5.150   3.3681
  5.145   3.4402
  5.139   3.3887
  5.134   3.3784
  5.129   3.3681
  5.124   3.3887
  5.119   3.3784
  5.114   3.3990
  5.109   3.4299
  5.104   3.4299
  5.099   3.3990
  5.094   3.3784
  5.089   3.4196
  5.084   3.4093
  5.079   3.3784
  5.074   3.3578
  5.069   3.3372
  5.064   3.3063
  5.059   3.2445
  5.054   3.2136
  5.049   3.2445
  5.044   3.2239
  5.040   3.2033
  5.035   3.2548
  5.030   3.2754
  5.025   3.2548
  5.020   3.2651
  5.015   3.2342
  5.010   3.2033
  5.005   3.1930
  5.001   3.2033
  4.996   3.2548
  4.991   3.2857
  4.986   3.2651
  4.981   3.2239
  4.977   3.2548
  4.972   3.3063
  4.967   3.2960
  4.962   3.2651
  4.958   3.3166
  4.953   3.3475
  4.948   3.3372
  4.943   3.3784
  4.939   3.4505
  4.934   3.5020
  4.929   3.5432
  4.925   3.5947
  4.920   3.6668
  4.915   3.6977
  4.911   3.7389
  4.906   3.8316
  4.901   3.9243
  4.897   4.0067
  4.892   4.0994
  4.888   4.1921
  4.883   4.2951
  4.878   4.3569
  4.874   4.4805
  4.869   4.6659
  4.865   4.7895
  4.860   4.8204
  4.856   4.8822
  4.851   4.9955
  4.846   5.1191
  4.842   5.1912
  4.837   5.2427
  4.833   5.3354
  4.828   5.4796
  4.824   5.5929
  4.819   5.6547
  4.815   5.7474
  4.810   5.8401
  4.806   5.9328
  4.802   5.9946
  4.797   6.0461
  4.793   6.0667
  4.788   6.1285
  4.784   6.1903
  4.779   6.2109
  4.775   6.2521
  4.771   6.3139
  4.766   6.3860
  4.762   6.3963
  4.758   6.3860
  4.753   6.4581
  4.749   6.5096
  4.744   6.5199
  4.740   6.5508
  4.736   6.5817
  4.731   6.5714
  4.727   6.6023
  4.723   6.6023
  4.719   6.6332
  4.714   6.7465
  4.710   6.7774
  4.706   6.7465
  4.701   6.7362
  4.697   6.6847
  4.693   6.7362
  4.689   6.7671
  4.684   6.7156
  4.680   6.6950
  4.676   6.6847
  4.672   6.7156
  4.668   6.7465
  4.663   6.7980
  4.659   6.8083
  4.655   6.8392
  4.651   6.8804
  4.647   6.8598
  4.643   6.8907
  4.638   6.9834
  4.634   6.9422
  4.630   6.9525
  4.626   7.0452
  4.622   7.0658
  4.618   7.0761
  4.614   7.1070
  4.610   7.0967
  4.605   7.1070
  4.601   7.1482
  4.597   7.2100
  4.593   7.2718
  4.589   7.3439
  4.585   7.3542
  4.581   7.3027
  4.577   7.2924
  4.573   7.3233
  4.569   7.3851
  4.565   7.3954
  4.561   7.3851
  4.557   7.4160
  4.553   7.4263
  4.549   7.4160
  4.545   7.4778
  4.541   7.5293
  4.537   7.5602
  4.533   7.4984
  4.529   7.4263
  4.525   7.4572
  4.521   7.4881
  4.517   7.5087
  4.513   7.4778
  4.509   7.4263
  4.505   7.4057
  4.502   7.4160
  4.498   7.4263
  4.494   7.4469
  4.490   7.4881
  4.486   7.4366
  4.482   7.3336
  4.478   7.2821
  4.474   7.2615
  4.470   7.3336
  4.467   7.3748
  4.463   7.3748
  4.459   7.3336
  4.455   7.3233
  4.451   7.3439
  4.447   7.3954
  4.444   7.4366
  4.440   7.3851
  4.436   7.2615
  4.432   7.2512
  4.428   7.2821
  4.425   7.3336
  4.421   7.2924
  4.417   7.2306
  4.413   7.1791
  4.410   7.1688
  4.406   7.1688
  4.402   7.2409
  4.398   7.2821
  4.395   7.2615
  4.391   7.2924
  4.387   7.2924
  4.384   7.2924
  4.380   7.3233
  4.376   7.3748
  4.372   7.4675
  4.369   7.5087
  4.365   7.5602
  4.361   7.6220
  4.358   7.5911
  4.354   7.6014
  4.350   7.6735
  4.347   7.6632
  4.343   7.7044
  4.340   7.7559
  4.336   7.8280
  4.332   7.8589
  4.329   7.9825
  4.325   8.0443
  4.321   8.0443
  4.318   7.9825
  4.314   7.9928
  4.311   8.0546
  4.307   8.1885
  4.304   8.3018
  4.300   8.3018
  4.296   8.3842
  4.293   8.4769
  4.289   8.4666
  4.286   8.4769
  4.282   8.5490
  4.279   8.6108
  4.275   8.6108
  4.272   8.5696
  4.268   8.6005
  4.265   8.6211
  4.261   8.6108
  4.258   8.6726
  4.254   8.7756
  4.251   8.8374
  4.247   8.8374
  4.244   8.8786
  4.240   8.9713
  4.237   9.0846
  4.233   9.1567
  4.230   9.1876
  4.226   9.1464
  4.223   9.1258
  4.219   9.1361
  4.216   9.1670
  4.213   9.1773
  4.209   9.1876
  4.206   9.2185
  4.202   9.2391
  4.199   9.2906
  4.196   9.2288
  4.192   9.1773
  4.189   9.2906
  4.185   9.3318
  4.182   9.2700
  4.179   9.2597
  4.175   9.3318
  4.172   9.4451
  4.169   9.4657
  4.165   9.4863
  4.162   9.5687
  4.159   9.5172
  4.155   9.3730
  4.152   9.3421
  4.149   9.4039
  4.145   9.4966
  4.142   9.5378
  4.139   9.5378
  4.135   9.4554
  4.132   9.5275
  4.129   9.6614
  4.126   9.5893
  4.122   9.5481
  4.119   9.5481
  4.116   9.5378
  4.112   9.5687
  4.109   9.6202
  4.106   9.6099
  4.103   9.6202
  4.099   9.7026
  4.096   9.7850
  4.093   9.7644
  4.090   9.7850
  4.086   9.7850
  4.083   9.7747
  4.080   9.8262
  4.077   9.7953
  4.074   9.7541
  4.070   9.7953
  4.067   9.8674
  4.064   9.8880
  4.061   9.8880
  4.058   9.9292
  4.055  10.0013
  4.051  10.0219
  4.048   9.9601
  4.045   9.9498
  4.042  10.0322
  4.039  10.0322
  4.036   9.9807
  4.032   9.9292
  4.029   9.9086
  4.026   9.9910
  4.023   9.9292
  4.020   9.8674
  4.017   9.9395
  4.014   9.9395
  4.011   9.8777
  4.008   9.8983
  4.004   9.8262
  4.001   9.7232
  3.998   9.7129
  3.995   9.7026
  3.992   9.6202
  3.989   9.6202
  3.986   9.6511
  3.983   9.6305
  3.980   9.5584
  3.977   9.5790
  3.974   9.7232
  3.971   9.7541
  3.968   9.7129
  3.965   9.7438
  3.962   9.7644
  3.959   9.8056
  3.956   9.7747
  3.953   9.7232
  3.950   9.8056
  3.947   9.9395
  3.944   9.9395
  3.941   9.9395
  3.938  10.0013
  3.935  10.0528
  3.932  10.0425
  3.929   9.9704
  3.926   9.9292
  3.923  10.0116
  3.920  10.0219
  3.917   9.9601
  3.914   9.9395
  3.911   9.9601
  3.908   9.9498
  3.905   9.9704
  3.902   9.9704
  3.899  10.0425
  3.896  10.0528
  3.893  10.0219
  3.890   9.9601
  3.887   9.9807
  3.884   9.9601
  3.882   9.9704
  3.879  10.0425
  3.876  10.1146
  3.873  10.0734
  3.870  10.0940
  3.867  10.1352
  3.864  10.1249
  3.861  10.0013
  3.858   9.9292
  3.856   9.8880
  3.853   9.9498
  3.850  10.0322
  3.847  10.0528
  3.844  10.0631
  3.841  10.0528
  3.838  10.0219
  3.836  10.0631
  3.833  10.1455
  3.830  10.0837
  3.827  10.0219
  3.824  10.0940
  3.822  10.1661
  3.819  10.0631
  3.816   9.9292
  3.813  10.0116
  3.810  10.0116
  3.807   9.9807
  3.805  10.0219
  3.802  10.0734
  3.799  10.1043
  3.796  10.1970
  3.794  10.1249
  3.791  10.0940
  3.788  10.0116
  3.785   9.9395
  3.782   9.9086
  3.780   9.9086
  3.777   9.8983
  3.774   9.9086
  3.771   9.9189
  3.769   9.9189
  3.766   9.9395
  3.763   9.9292
  3.761   9.9292
  3.758   9.8365
  3.755   9.7644
  3.752   9.7541
  3.750   9.7335
  3.747   9.7026
  3.744   9.7438
  3.742   9.8159
  3.739   9.7541
  3.736   9.6717
  3.733   9.5584
  3.731   9.5584
  3.728   9.6099
  3.725   9.5996
  3.723   9.6099
  3.720   9.5481
  3.717   9.4451
  3.715   9.4554
  3.712   9.4245
  3.709   9.4039
  3.707   9.3524
  3.704   9.3627
  3.702   9.4451
  3.699   9.4245
  3.696   9.2906
  3.694   9.3009
  3.691   9.3215
  3.688   9.2494
  3.686   9.2597
  3.683   9.2906
  3.680   9.2494
  3.678   9.2288
  3.675   9.2185
  3.673   9.2082
  3.670   9.1464
  3.667   9.1258
  3.665   9.1052
  3.662   9.1567
  3.660   9.1155
  3.657   9.0125
  3.655   8.9095
  3.652   8.7962
  3.649   8.8271
  3.647   9.0022
  3.644   8.9610
  3.642   8.7962
  3.639   8.7138
  3.637   8.6829
  3.634   8.6623
  3.632   8.7447
  3.629   8.7653
  3.626   8.7344
  3.624   8.5696
  3.621   8.5284
  3.619   8.4872
  3.616   8.4769
  3.614   8.4460
  3.611   8.4254
  3.609   8.3739
  3.606   8.3533
  3.604   8.3327
  3.601   8.3224
  3.599   8.3327
  3.596   8.2812
  3.594   8.2400
  3.591   8.2194
  3.589   8.1576
  3.586   8.1164
  3.584   8.1267
  3.581   8.0752
  3.579   8.0031
  3.576   8.0134
