Name: Altered volcanic tuff
Type: Rock
Class: Igneous
Subclass: Felsic
Particle Size: Whole rock chips
Sample No.: Cup5
Owner: USGS
Wavelength range: 0.40 - 14.05 um
Origin: Cuprite, Nevada

Description: Altered volcanic tuff, white





Measurement: Directional Hemispherical Reflectance
First Column: X
Second Column: Y
X Units: Wavelength (micrometers)
Y Units: Reflectance (percent)
First X Value: 14.05105
Last X Value: 0.40000
Number of X Values: 2756
Additional Information: None

 14.051   4.7689
 14.013   4.5835
 13.975   4.6453
 13.938   4.5423
 13.900   4.4393
 13.863   4.1097
 13.826   4.0376
 13.790   3.8007
 13.753   3.5432
 13.717   3.3681
 13.680   3.2754
 13.644   3.1106
 13.609   3.1106
 13.573   2.9149
 13.538   2.9149
 13.502   2.9355
 13.467   2.9973
 13.432   2.9252
 13.398   2.9252
 13.363   2.9458
 13.329   3.0076
 13.295   2.8943
 13.261   2.9664
 13.227   2.9870
 13.193   2.8943
 13.160   2.8016
 13.126   2.9149
 13.093   3.0076
 13.060   3.0900
 13.027   3.1003
 12.995   3.1724
 12.962   3.1415
 12.930   3.2136
 12.898   3.3269
 12.866   3.5329
 12.834   3.5020
 12.802   3.4505
 12.771   3.3372
 12.739   3.4196
 12.708   3.3887
 12.677   3.2651
 12.646   3.1106
 12.616   3.1209
 12.585   3.0488
 12.554   2.9870
 12.524   2.8531
 12.494   2.7810
 12.464   2.6780
 12.434   2.6471
 12.404   2.5235
 12.375   2.4514
 12.345   2.3896
 12.316   2.3999
 12.287   2.3587
 12.258   2.4514
 12.229   2.4514
 12.200   2.5235
 12.171   2.5750
 12.143   2.6368
 12.115   2.6265
 12.086   2.6471
 12.058   2.6574
 12.030   2.7604
 12.002   2.8016
 11.975   2.7913
 11.947   2.7604
 11.920   2.9664
 11.892   2.9767
 11.865   2.8737
 11.838   2.8325
 11.811   3.0591
 11.784   3.1827
 11.757   3.2754
 11.731   3.3475
 11.704   3.3166
 11.678   3.1724
 11.652   3.2857
 11.626   3.4402
 11.600   3.5226
 11.574   3.5020
 11.548   3.6153
 11.522   3.6153
 11.497   3.6668
 11.471   3.6874
 11.446   3.7389
 11.421   3.7080
 11.396   3.7904
 11.371   3.7595
 11.346   3.7698
 11.321   3.8213
 11.297   3.9861
 11.272   3.9964
 11.248   4.0067
 11.223   4.0170
 11.199   4.0788
 11.175   4.0994
 11.151   4.0994
 11.127   4.0582
 11.103   4.1303
 11.079   4.1921
 11.056   4.3157
 11.032   4.2745
 11.009   4.3157
 10.985   4.3466
 10.962   4.3878
 10.939   4.3363
 10.916   4.3569
 10.893   4.3981
 10.870   4.4393
 10.848   4.4702
 10.825   4.5526
 10.802   4.5011
 10.780   4.5423
 10.758   4.5835
 10.735   4.5835
 10.713   4.5423
 10.691   4.6144
 10.669   4.6350
 10.647   4.7689
 10.625   4.7586
 10.604   4.7277
 10.582   4.7895
 10.560   4.9337
 10.539   4.9337
 10.518   5.0058
 10.496   5.0676
 10.475   5.0573
 10.454   5.0264
 10.433   5.1191
 10.412   5.1809
 10.391   5.2736
 10.370   5.3045
 10.350   5.3972
 10.329   5.4487
 10.309   5.5311
 10.288   5.6032
 10.268   5.7062
 10.247   5.7783
 10.227   5.8710
 10.207   5.8710
 10.187   5.9740
 10.167   6.1182
 10.147   6.2212
 10.127   6.2212
 10.108   6.3242
 10.088   6.4581
 10.068   6.6435
 10.049   6.7980
 10.029   6.9319
 10.010   7.0143
  9.991   7.1379
  9.972   7.2512
  9.952   7.4366
  9.933   7.5602
  9.914   7.7456
  9.895   7.9207
  9.877   8.1473
  9.858   8.3842
  9.839   8.5799
  9.821   8.7653
  9.802   8.9713
  9.783   9.1258
  9.765   9.4142
  9.747   9.6923
  9.728   9.9601
  9.710  10.0940
  9.692  10.0322
  9.674   9.8262
  9.656   9.8983
  9.638   9.9910
  9.620  10.1661
  9.602  10.3824
  9.585  10.5987
  9.567  10.6811
  9.549  10.8665
  9.532  11.0313
  9.514  11.2888
  9.497  11.5772
  9.479  11.8862
  9.462  12.1231
  9.445  12.4321
  9.428  12.6999
  9.411  13.1428
  9.394  13.6578
  9.377  14.1831
  9.360  14.6981
  9.343  15.2131
  9.326  15.8517
  9.309  16.5521
  9.293  17.1289
  9.276  17.6233
  9.259  18.1074
  9.243  18.7460
  9.226  19.3846
  9.210  19.8996
  9.194  20.3528
  9.178  20.8678
  9.161  21.2798
  9.145  21.6712
  9.129  21.9905
  9.113  22.3716
  9.097  22.7527
  9.081  23.1132
  9.065  23.5664
  9.049  23.9887
  9.034  24.1741
  9.018  24.2977
  9.002  24.3389
  8.987  24.4316
  8.971  24.4316
  8.956  24.4419
  8.940  24.3904
  8.925  24.2977
  8.909  24.1329
  8.894  23.8960
  8.879  23.4943
  8.864  23.1647
  8.849  22.9381
  8.834  22.7424
  8.819  22.3407
  8.804  21.8257
  8.789  21.3313
  8.774  21.0120
  8.759  20.6309
  8.744  20.1262
  8.730  19.6009
  8.715  19.2095
  8.700  18.7872
  8.686  18.3958
  8.671  17.9014
  8.657  17.3555
  8.642  16.7890
  8.628  16.4079
  8.614  16.3976
  8.599  16.7581
  8.585  16.9744
  8.571  16.9023
  8.557  16.7272
  8.543  16.4903
  8.529  15.9856
  8.515  15.4088
  8.501  14.8732
  8.487  14.3994
  8.473  13.9462
  8.459  13.6475
  8.445  13.2355
  8.431  12.8235
  8.418  12.5145
  8.404  12.2467
  8.391  11.9068
  8.377  11.6287
  8.363  11.3918
  8.350  11.1240
  8.337  10.7944
  8.323  10.6605
  8.310  10.5266
  8.297  10.4236
  8.283  10.3309
  8.270  10.1867
  8.257   9.9704
  8.244   9.8365
  8.231   9.6614
  8.218   9.5893
  8.205   9.5069
  8.192   9.4760
  8.179   9.3833
  8.166   9.2906
  8.153   9.1155
  8.140   8.9713
  8.128   8.9507
  8.115   8.9610
  8.102   8.8374
  8.090   8.7344
  8.077   8.5490
  8.064   8.5181
  8.052   8.5284
  8.039   8.5902
  8.027   8.5902
  8.015   8.6314
  8.002   8.5902
  7.990   8.5490
  7.978   8.5799
  7.965   8.5696
  7.953   8.4460
  7.941   8.3533
  7.929   8.1782
  7.917   7.9104
  7.905   7.6220
  7.893   7.3542
  7.881   6.9422
  7.869   6.5714
  7.857   6.1594
  7.845   5.7783
  7.833   5.3766
  7.821   4.9955
  7.809   4.6350
  7.798   4.2745
  7.786   3.9655
  7.774   3.6565
  7.763   3.3372
  7.751   3.1621
  7.739   2.9355
  7.728   2.7295
  7.716   2.5750
  7.705   2.4720
  7.694   2.3793
  7.682   2.2454
  7.671   2.0909
  7.659   1.9673
  7.648   1.8849
  7.637   1.8334
  7.626   1.7613
  7.614   1.6583
  7.603   1.5656
  7.592   1.5553
  7.581   1.5347
  7.570   1.5244
  7.559   1.4317
  7.548   1.4008
  7.537   1.3802
  7.526   1.4008
  7.515   1.3802
  7.504   1.3699
  7.493   1.3390
  7.483   1.3081
  7.472   1.2360
  7.461   1.1948
  7.450   1.1948
  7.440   1.2051
  7.429   1.1330
  7.418   1.1433
  7.408   1.1639
  7.397   1.1845
  7.387   1.1742
  7.376   1.1742
  7.366   1.1742
  7.355   1.2051
  7.345   1.1639
  7.334   1.1330
  7.324   1.1433
  7.314   1.1742
  7.303   1.1227
  7.293   1.1021
  7.283   1.0712
  7.273   1.1227
  7.263   1.1124
  7.252   1.0506
  7.242   1.0609
  7.232   1.0712
  7.222   1.0197
  7.212   1.0815
  7.202   1.1639
  7.192   1.1845
  7.182   1.1742
  7.172   1.1536
  7.162   1.1330
  7.152   1.2051
  7.143   1.1639
  7.133   1.1742
  7.123   1.1845
  7.113   1.1536
  7.103   1.1433
  7.094   1.1330
  7.084   1.1124
  7.074   1.1742
  7.065   1.2257
  7.055   1.2566
  7.046   1.2257
  7.036   1.2566
  7.026   1.2463
  7.017   1.1948
  7.007   1.1536
  6.998   1.1948
  6.989   1.2257
  6.979   1.2772
  6.970   1.2154
  6.960   1.2051
  6.951   1.2154
  6.942   1.2772
  6.932   1.2875
  6.923   1.2978
  6.914   1.2360
  6.905   1.2463
  6.896   1.3184
  6.886   1.3905
  6.877   1.3081
  6.868   1.3287
  6.859   1.3699
  6.850   1.4008
  6.841   1.3493
  6.832   1.3699
  6.823   1.3905
  6.814   1.4008
  6.805   1.4008
  6.796   1.4111
  6.787   1.4111
  6.778   1.4317
  6.770   1.4935
  6.761   1.5244
  6.752   1.5553
  6.743   1.6583
  6.734   1.6274
  6.726   1.6171
  6.717   1.6274
  6.708   1.7304
  6.700   1.7407
  6.691   1.7304
  6.682   1.7510
  6.674   1.7510
  6.665   1.6995
  6.657   1.7613
  6.648   1.8231
  6.640   1.8231
  6.631   1.8128
  6.623   1.8231
  6.614   1.7819
  6.606   1.8231
  6.597   1.9158
  6.589   2.0188
  6.581   1.9879
  6.572   1.9673
  6.564   1.9467
  6.556   1.9879
  6.547   2.0085
  6.539   2.0291
  6.531   2.0394
  6.523   2.0497
  6.514   2.1012
  6.506   2.1836
  6.498   2.2145
  6.490   2.2248
  6.482   2.2042
  6.474   2.2351
  6.466   2.3072
  6.458   2.3278
  6.450   2.2557
  6.442   2.2454
  6.434   2.2866
  6.426   2.3072
  6.418   2.2866
  6.410   2.3690
  6.402   2.3896
  6.394   2.3793
  6.386   2.3381
  6.378   2.2969
  6.370   2.2557
  6.363   2.2248
  6.355   2.2042
  6.347   2.2557
  6.339   2.2969
  6.332   2.2557
  6.324   2.1733
  6.316   2.1630
  6.308   2.1321
  6.301   2.0909
  6.293   2.0600
  6.286   2.1012
  6.278   2.0909
  6.270   2.0703
  6.263   2.0703
  6.255   2.1115
  6.248   2.0806
  6.240   2.0394
  6.233   2.0291
  6.225   1.9982
  6.218   1.9982
  6.210   1.9879
  6.203   1.9467
  6.195   1.9570
  6.188   1.8849
  6.181   1.8231
  6.173   1.8540
  6.166   1.8746
  6.159   1.8231
  6.151   1.8128
  6.144   1.8540
  6.137   1.9158
  6.130   1.8746
  6.122   1.8437
  6.115   1.8746
  6.108   1.8952
  6.101   1.8231
  6.094   1.7819
  6.086   1.7922
  6.079   1.8334
  6.072   1.8334
  6.065   1.8334
  6.058   1.8334
  6.051   1.9158
  6.044   1.9467
  6.037   1.8952
  6.030   1.9261
  6.023   1.9673
  6.016   1.9158
  6.009   1.9776
  6.002   2.0497
  5.995   2.0600
  5.988   2.0497
  5.981   2.1012
  5.974   2.1424
  5.967   2.1321
  5.960   2.1321
  5.954   2.2145
  5.947   2.2763
  5.940   2.3484
  5.933   2.4102
  5.926   2.4411
  5.920   2.4205
  5.913   2.4617
  5.906   2.5235
  5.899   2.5956
  5.893   2.6574
  5.886   2.7192
  5.879   2.7295
  5.873   2.7707
  5.866   2.7810
  5.859   2.8119
  5.853   2.8531
  5.846   2.9149
  5.840   2.9458
  5.833   2.9561
  5.827   2.9767
  5.820   3.0179
  5.813   3.0797
  5.807   3.1312
  5.800   3.1106
  5.794   3.0591
  5.788   3.0179
  5.781   3.0591
  5.775   3.1003
  5.768   3.0900
  5.762   3.0797
  5.755   3.0591
  5.749   3.0591
  5.743   3.1003
  5.736   3.1003
  5.730   3.1003
  5.724   3.1003
  5.717   3.1621
  5.711   3.2445
  5.705   3.2857
  5.698   3.3063
  5.692   3.3578
  5.686   3.3990
  5.680   3.4608
  5.674   3.4917
  5.667   3.4608
  5.661   3.4608
  5.655   3.5123
  5.649   3.5226
  5.643   3.5123
  5.637   3.5638
  5.630   3.5535
  5.624   3.5226
  5.618   3.5638
  5.612   3.6153
  5.606   3.6359
  5.600   3.5947
  5.594   3.6153
  5.588   3.6050
  5.582   3.5741
  5.576   3.6256
  5.570   3.6153
  5.564   3.5844
  5.558   3.6050
  5.552   3.6256
  5.546   3.6462
  5.540   3.6874
  5.534   3.7080
  5.528   3.7183
  5.523   3.7801
  5.517   3.7801
  5.511   3.8110
  5.505   3.8213
  5.499   3.7904
  5.493   3.8316
  5.487   3.8831
  5.482   3.8831
  5.476   3.9243
  5.470   3.9346
  5.464   3.9243
  5.459   3.9346
  5.453   3.9140
  5.447   3.8625
  5.441   3.8625
  5.436   3.8522
  5.430   3.8213
  5.424   3.8213
  5.419   3.8522
  5.413   3.8007
  5.407   3.7183
  5.402   3.6462
  5.396   3.6050
  5.390   3.5432
  5.385   3.4608
  5.379   3.3990
  5.374   3.3887
  5.368   3.3475
  5.363   3.3063
  5.357   3.2239
  5.352   3.1724
  5.346   3.1724
  5.341   3.2033
  5.335   3.1518
  5.330   3.1518
  5.324   3.1415
  5.319   3.1415
  5.313   3.1827
  5.308   3.2342
  5.302   3.2136
  5.297   3.2239
  5.291   3.2548
  5.286   3.2857
  5.281   3.3475
  5.275   3.3681
  5.270   3.3990
  5.265   3.4505
  5.259   3.4917
  5.254   3.5535
  5.249   3.5947
  5.243   3.6256
  5.238   3.7286
  5.233   3.8625
  5.227   3.9037
  5.222   3.9449
  5.217   4.0376
  5.212   4.1097
  5.206   4.1921
  5.201   4.2745
  5.196   4.3157
  5.191   4.3775
  5.186   4.4908
  5.180   4.5629
  5.175   4.5938
  5.170   4.6144
  5.165   4.6865
  5.160   4.7792
  5.155   4.7998
  5.150   4.8101
  5.145   4.8101
  5.139   4.8410
  5.134   4.8719
  5.129   4.8822
  5.124   4.8719
  5.119   4.9028
  5.114   4.9131
  5.109   4.8822
  5.104   4.8925
  5.099   4.8925
  5.094   4.8616
  5.089   4.8204
  5.084   4.7792
  5.079   4.7998
  5.074   4.8410
  5.069   4.8410
  5.064   4.8204
  5.059   4.7998
  5.054   4.7586
  5.049   4.7174
  5.044   4.6659
  5.040   4.6762
  5.035   4.6659
  5.030   4.6659
  5.025   4.6968
  5.020   4.6762
  5.015   4.6453
  5.010   4.6350
  5.005   4.6041
  5.001   4.5835
  4.996   4.6041
  4.991   4.6144
  4.986   4.6247
  4.981   4.6350
  4.977   4.6556
  4.972   4.6453
  4.967   4.6247
  4.962   4.6247
  4.958   4.6350
  4.953   4.6762
  4.948   4.7071
  4.943   4.7174
  4.939   4.7792
  4.934   4.9028
  4.929   4.9337
  4.925   4.9646
  4.920   5.0779
  4.915   5.1088
  4.911   5.0985
  4.906   5.1809
  4.901   5.3251
  4.897   5.4796
  4.892   5.6135
  4.888   5.6547
  4.883   5.6856
  4.878   5.7886
  4.874   5.9328
  4.869   5.9843
  4.865   6.0255
  4.860   6.1800
  4.856   6.2521
  4.851   6.2624
  4.846   6.2418
  4.842   6.3448
  4.837   6.4890
  4.833   6.6950
  4.828   6.8701
  4.824   7.0040
  4.819   7.2100
  4.815   7.3645
  4.810   7.3645
  4.806   7.3748
  4.802   7.4160
  4.797   7.3645
  4.793   7.3439
  4.788   7.3439
  4.784   7.2409
  4.779   7.1276
  4.775   6.9937
  4.771   6.8186
  4.766   6.6538
  4.762   6.4993
  4.758   6.3551
  4.753   6.2830
  4.749   6.1903
  4.744   6.0770
  4.740   5.8710
  4.736   5.7268
  4.731   5.6238
  4.727   5.6341
  4.723   5.6753
  4.719   5.6444
  4.714   5.6341
  4.710   5.7268
  4.706   5.7783
  4.701   5.8195
  4.697   5.8916
  4.693   5.9431
  4.689   5.9431
  4.684   5.9225
  4.680   5.8607
  4.676   5.8813
  4.672   5.9328
  4.668   5.9946
  4.663   6.0873
  4.659   6.1388
  4.655   6.1388
  4.651   6.1182
  4.647   6.1079
  4.643   6.0255
  4.638   5.9740
  4.634   5.9946
  4.630   5.9843
  4.626   5.9122
  4.622   5.7989
  4.618   5.7680
  4.614   5.8195
  4.610   5.8607
  4.605   5.8195
  4.601   5.7680
  4.597   5.7371
  4.593   5.6856
  4.589   5.7062
  4.585   5.7783
  4.581   5.7989
  4.577   5.8710
  4.573   5.9328
  4.569   5.9328
  4.565   5.9431
  4.561   6.0049
  4.557   6.0873
  4.553   6.0770
  4.549   6.0255
  4.545   5.9740
  4.541   5.9637
  4.537   6.0358
  4.533   6.0667
  4.529   6.1285
  4.525   6.2212
  4.521   6.2727
  4.517   6.2109
  4.513   6.1388
  4.509   6.1079
  4.505   6.1800
  4.502   6.2109
  4.498   6.2109
  4.494   6.2418
  4.490   6.1800
  4.486   6.1697
  4.482   6.2315
  4.478   6.3448
  4.474   6.3551
  4.470   6.3860
  4.467   6.4581
  4.463   6.4787
  4.459   6.4478
  4.455   6.4478
  4.451   6.4478
  4.447   6.4890
  4.444   6.5508
  4.440   6.5405
  4.436   6.5302
  4.432   6.5714
  4.428   6.5714
  4.425   6.5611
  4.421   6.5920
  4.417   6.6435
  4.413   6.7156
  4.410   6.7362
  4.406   6.7053
  4.402   6.6538
  4.398   6.6641
  4.395   6.7156
  4.391   6.7877
  4.387   6.7980
  4.384   6.7465
  4.380   6.7259
  4.376   6.7053
  4.372   6.6744
  4.369   6.6744
  4.365   6.6538
  4.361   6.6229
  4.358   6.6847
  4.354   6.7671
  4.350   6.7980
  4.347   6.8392
  4.343   6.9010
  4.340   6.9216
  4.336   7.0143
  4.332   7.0761
  4.329   7.1791
  4.325   7.2821
  4.321   7.4057
  4.318   7.4778
  4.314   7.6117
  4.311   7.7044
  4.307   7.8383
  4.304   7.9928
  4.300   8.1164
  4.296   8.2297
  4.293   8.3327
  4.289   8.3533
  4.286   8.4048
  4.282   8.4666
  4.279   8.5387
  4.275   8.6726
  4.272   8.7962
  4.268   8.8271
  4.265   8.8683
  4.261   8.9301
  4.258   9.0228
  4.254   9.0537
  4.251   9.0743
  4.247   9.1567
  4.244   9.2803
  4.240   9.3524
  4.237   9.4554
  4.233   9.6099
  4.230   9.7747
  4.226   9.8674
  4.223   9.8880
  4.219   9.8983
  4.216  10.0219
  4.213  10.1455
  4.209  10.1764
  4.206  10.1558
  4.202  10.1558
  4.199  10.2485
  4.196  10.3103
  4.192  10.3515
  4.189  10.3515
  4.185  10.3412
  4.182  10.3824
  4.179  10.4236
  4.175  10.4442
  4.172  10.4648
  4.169  10.4957
  4.165  10.4442
  4.162  10.3824
  4.159  10.4133
  4.155  10.4133
  4.152  10.4339
  4.149  10.4957
  4.145  10.4854
  4.142  10.4648
  4.139  10.4957
  4.135  10.5678
  4.132  10.6193
  4.129  10.6605
  4.126  10.6399
  4.122  10.7017
  4.119  10.7841
  4.116  10.7841
  4.112  10.7841
  4.109  10.7738
  4.106  10.8871
  4.103  11.0004
  4.099  11.0004
  4.096  10.9386
  4.093  11.0416
  4.090  11.1755
  4.086  11.2373
  4.083  11.2682
  4.080  11.3197
  4.077  11.3712
  4.074  11.4021
  4.070  11.4742
  4.067  11.5875
  4.064  11.5772
  4.061  11.5772
  4.058  11.6081
  4.055  11.6802
  4.051  11.7008
  4.048  11.7111
  4.045  11.7626
  4.042  11.8244
  4.039  11.9480
  4.036  11.9583
  4.032  11.9789
  4.029  12.0613
  4.026  12.1437
  4.023  12.1540
  4.020  12.1231
  4.017  12.1437
  4.014  12.1952
  4.011  12.1746
  4.008  12.2055
  4.004  12.2467
  4.001  12.2055
  3.998  12.1231
  3.995  12.1952
  3.992  12.2673
  3.989  12.2879
  3.986  12.2673
  3.983  12.2467
  3.980  12.2570
  3.977  12.3188
  3.974  12.3085
  3.971  12.3291
  3.968  12.3497
  3.965  12.3188
  3.962  12.4115
  3.959  12.4218
  3.956  12.3703
  3.953  12.4321
  3.950  12.5145
  3.947  12.4836
  3.944  12.4630
  3.941  12.5145
  3.938  12.6072
  3.935  12.7308
  3.932  12.7102
  3.929  12.6072
  3.926  12.6587
  3.923  12.6999
  3.920  12.6896
  3.917  12.7308
  3.914  12.7720
  3.911  12.7617
  3.908  12.7514
  3.905  12.7617
  3.902  12.7720
  3.899  12.7720
  3.896  12.7102
  3.893  12.7205
  3.890  12.7617
  3.887  12.8029
  3.884  12.6896
  3.882  12.6484
  3.879  12.6072
  3.876  12.4321
  3.873  12.0613
  3.870  11.9995
  3.867  12.2776
  3.864  12.4115
  3.861  12.4939
  3.858  12.7205
  3.856  12.8647
  3.853  12.8544
  3.850  12.8029
  3.847  12.8441
  3.844  12.8441
  3.841  12.7926
  3.838  12.7926
  3.836  12.8029
  3.833  12.7308
  3.830  12.7823
  3.827  12.7926
  3.824  12.7720
  3.822  12.7617
  3.819  12.7720
  3.816  12.7102
  3.813  12.6896
  3.810  12.6587
  3.807  12.6484
  3.805  12.6999
  3.802  12.7205
  3.799  12.6793
  3.796  12.6175
  3.794  12.5660
  3.791  12.5866
  3.788  12.6381
  3.785  12.6484
  3.782  12.5145
  3.780  12.4321
  3.777  12.3909
  3.774  12.3806
  3.771  12.3703
  3.769  12.3703
  3.766  12.2467
  3.763  12.1643
  3.761  12.2261
  3.758  12.1849
  3.755  12.1128
  3.752  12.1025
  3.750  12.0098
  3.747  12.0201
  3.744  12.0613
  3.742  11.9789
  3.739  11.9068
  3.736  11.8965
  3.733  11.8656
  3.731  11.8038
  3.728  11.7111
  3.725  11.6493
  3.723  11.6596
  3.720  11.7111
  3.717  11.7317
  3.715  11.6699
  3.712  11.5051
  3.709  11.4742
  3.707  11.4948
  3.704  11.4536
  3.702  11.3506
  3.699  11.3300
  3.696  11.2476
  3.694  11.2167
  3.691  11.1858
  3.688  11.1137
  3.686  11.1549
  3.683  11.1446
  3.680  10.9798
  3.678  10.9077
  3.675  10.8768
  3.673  10.8459
  3.670  10.8253
  3.667  10.7635
  3.665  10.7017
  3.662  10.7120
  3.660  10.6090
  3.657  10.5163
  3.655  10.5575
  3.652  10.6090
  3.649  10.5781
  3.647  10.5266
  3.644  10.4236
  3.642  10.3412
  3.639  10.3000
  3.637  10.2176
  3.634  10.1661
  3.632  10.1764
  3.629  10.0734
  3.626   9.9910
  3.624  10.0425
  3.621   9.9498
  3.619   9.7541
  3.616   9.7335
  3.614   9.6717
  3.611   9.7026
  3.609   9.6408
  3.606   9.6202
  3.604   9.6820
  3.601   9.6202
  3.599   9.4657
  3.596   9.4348
  3.594   9.4863
  3.591   9.4245
  3.589   9.2597
  3.586   9.1464
  3.584   9.1464
  3.581   9.1464
  3.579   9.0846
  3.576   8.9713
