Name: Altered volcanic tuff
Type: Rock
Class: Igneous
Subclass: Felsic
Particle Size: Whole rock chips
Sample No.: Cup6
Owner: USGS
Wavelength range: 0.40 - 14.05 um
Origin: Cuprite, Nevada

Description: Altered volcanic tuff, white





Measurement: Directional Hemispherical Reflectance
First Column: X
Second Column: Y
X Units: Wavelength (micrometers)
Y Units: Reflectance (percent)
First X Value: 14.05105
Last X Value: 0.40000
Number of X Values: 2756
Additional Information: None

 14.051   2.1733
 14.013   2.2557
 13.975   2.2969
 13.938   2.3484
 13.900   2.5544
 13.863   2.5853
 13.826   2.6883
 13.790   2.5235
 13.753   2.5956
 13.717   2.6883
 13.680   2.8119
 13.644   2.7501
 13.609   2.7604
 13.573   2.7707
 13.538   2.8222
 13.502   2.7604
 13.467   2.9149
 13.432   3.0591
 13.398   3.1621
 13.363   3.1415
 13.329   3.2342
 13.295   3.2136
 13.261   3.2857
 13.227   3.2033
 13.193   3.2033
 13.160   3.3475
 13.126   3.5226
 13.093   3.5741
 13.060   3.6977
 13.027   3.7904
 12.995   3.9655
 12.962   4.1612
 12.930   4.4187
 12.898   4.6247
 12.866   5.0161
 12.834   5.3148
 12.802   5.4281
 12.771   5.2530
 12.739   5.0985
 12.708   4.7792
 12.677   4.4393
 12.646   4.1303
 12.616   4.1303
 12.585   4.3363
 12.554   4.7071
 12.524   4.9646
 12.494   5.1191
 12.464   5.1294
 12.434   4.9440
 12.404   4.3878
 12.375   3.6050
 12.345   2.5544
 12.316   1.8334
 12.287   1.5759
 12.258   1.6068
 12.229   1.5862
 12.200   1.6171
 12.171   1.6686
 12.143   1.8025
 12.115   1.8952
 12.086   2.0085
 12.058   1.9879
 12.030   2.1527
 12.002   2.2042
 11.975   2.2969
 11.947   2.4308
 11.920   2.5132
 11.892   2.5441
 11.865   2.6368
 11.838   2.5750
 11.811   2.6574
 11.784   2.8222
 11.757   2.9458
 11.731   2.9252
 11.704   2.9458
 11.678   2.9870
 11.652   3.0694
 11.626   3.0488
 11.600   3.1312
 11.574   3.1106
 11.548   3.1518
 11.522   3.2033
 11.497   3.2857
 11.471   3.3269
 11.446   3.3578
 11.421   3.2857
 11.396   3.2754
 11.371   3.2960
 11.346   3.4093
 11.321   3.4608
 11.297   3.5947
 11.272   3.6153
 11.248   3.6050
 11.223   3.5329
 11.199   3.6050
 11.175   3.6771
 11.151   3.7286
 11.127   3.6462
 11.103   3.7389
 11.079   3.7492
 11.056   3.7183
 11.032   3.7389
 11.009   3.8728
 10.985   3.8110
 10.962   3.8213
 10.939   3.8316
 10.916   3.8625
 10.893   3.9037
 10.870   3.9449
 10.848   3.9243
 10.825   3.9552
 10.802   3.9552
 10.780   3.9243
 10.758   3.9037
 10.735   4.0685
 10.713   4.1612
 10.691   4.1200
 10.669   4.0479
 10.647   4.1509
 10.625   4.2127
 10.604   4.2436
 10.582   4.1715
 10.560   4.2745
 10.539   4.2951
 10.518   4.3672
 10.496   4.4702
 10.475   4.4496
 10.454   4.3981
 10.433   4.4393
 10.412   4.4496
 10.391   4.5526
 10.370   4.6659
 10.350   4.7792
 10.329   4.7998
 10.309   4.8204
 10.288   4.8410
 10.268   4.9440
 10.247   4.9646
 10.227   5.0058
 10.207   4.9646
 10.187   5.1706
 10.167   5.2633
 10.147   5.2530
 10.127   5.2736
 10.108   5.3972
 10.088   5.4796
 10.068   5.5311
 10.049   5.5414
 10.029   5.6547
 10.010   5.7371
  9.991   5.8504
  9.972   5.9740
  9.952   6.1388
  9.933   6.1697
  9.914   6.2830
  9.895   6.3654
  9.877   6.4169
  9.858   6.5508
  9.839   6.7465
  9.821   6.7568
  9.802   6.9525
  9.783   7.1173
  9.765   7.1997
  9.747   7.2615
  9.728   7.4469
  9.710   7.5705
  9.692   7.6426
  9.674   7.7456
  9.656   7.9619
  9.638   8.1988
  9.620   8.4254
  9.602   8.5799
  9.585   8.7241
  9.567   8.8065
  9.549   9.0434
  9.532   9.3318
  9.514   9.6202
  9.497   9.7953
  9.479  10.1455
  9.462  10.6296
  9.445  11.2682
  9.428  11.8759
  9.411  12.7514
  9.394  13.7814
  9.377  14.9350
  9.360  16.1092
  9.343  17.2422
  9.326  18.2516
  9.309  19.0962
  9.293  19.5906
  9.276  19.8584
  9.259  19.9511
  9.243  19.9717
  9.226  19.8790
  9.210  19.7451
  9.194  19.5700
  9.178  19.4670
  9.161  19.3022
  9.145  19.1786
  9.129  18.9417
  9.113  18.7151
  9.097  18.4988
  9.081  18.3443
  9.065  18.1383
  9.049  18.0662
  9.034  17.9735
  9.018  17.8087
  9.002  17.5203
  8.987  17.3864
  8.971  17.2834
  8.956  17.1907
  8.940  17.0568
  8.925  16.9950
  8.909  16.9126
  8.894  16.7993
  8.879  16.6242
  8.864  16.5727
  8.849  16.5109
  8.834  16.4388
  8.819  16.3152
  8.804  16.2637
  8.789  16.1813
  8.774  16.0474
  8.759  15.8826
  8.744  15.7796
  8.730  15.6560
  8.715  15.6148
  8.700  15.4191
  8.686  15.0998
  8.671  14.5127
  8.657  13.7814
  8.642  12.7720
  8.628  11.6390
  8.614  11.0210
  8.599  11.5669
  8.585  12.8029
  8.571  14.0698
  8.557  15.0586
  8.543  15.7899
  8.529  16.2431
  8.515  16.6139
  8.501  16.8920
  8.487  17.0877
  8.473  17.1907
  8.459  17.3246
  8.445  17.4379
  8.431  17.6336
  8.418  17.7160
  8.404  17.7675
  8.391  17.9117
  8.377  18.1280
  8.363  18.4164
  8.350  18.7151
  8.337  18.9623
  8.323  19.2507
  8.310  19.5597
  8.297  19.8584
  8.283  20.0438
  8.270  20.3219
  8.257  20.6206
  8.244  20.8369
  8.231  20.9090
  8.218  20.9811
  8.205  21.0326
  8.192  20.9605
  8.179  20.7751
  8.166  20.4249
  8.153  19.8584
  8.140  19.0962
  8.128  18.0765
  8.115  17.0465
  8.102  16.0062
  8.090  14.9350
  8.077  13.9359
  8.064  13.0089
  8.052  12.1437
  8.039  11.3609
  8.027  10.5678
  8.015   9.9086
  8.002   9.3009
  7.990   8.7653
  7.978   8.1885
  7.965   7.6838
  7.953   7.1276
  7.941   6.5920
  7.929   6.0667
  7.917   5.6444
  7.905   5.2118
  7.893   4.7586
  7.881   4.3878
  7.869   4.1200
  7.857   3.7698
  7.845   3.4917
  7.833   3.3063
  7.821   3.1415
  7.809   2.9252
  7.798   2.7604
  7.786   2.5956
  7.774   2.4411
  7.763   2.2866
  7.751   2.1836
  7.739   2.0703
  7.728   1.9570
  7.716   1.8437
  7.705   1.7819
  7.694   1.6789
  7.682   1.5759
  7.671   1.4832
  7.659   1.3905
  7.648   1.2875
  7.637   1.2154
  7.626   1.1948
  7.614   1.1742
  7.603   1.1124
  7.592   1.0815
  7.581   0.9991
  7.570   0.9270
  7.559   0.8446
  7.548   0.8858
  7.537   0.9064
  7.526   0.8961
  7.515   0.8343
  7.504   0.8240
  7.493   0.8034
  7.483   0.8137
  7.472   0.7931
  7.461   0.8137
  7.450   0.7622
  7.440   0.7828
  7.429   0.7828
  7.418   0.7622
  7.408   0.7519
  7.397   0.7622
  7.387   0.7313
  7.376   0.7622
  7.366   0.7416
  7.355   0.7004
  7.345   0.7828
  7.334   0.8652
  7.324   0.8034
  7.314   0.7622
  7.303   0.7313
  7.293   0.7313
  7.283   0.7107
  7.273   0.7416
  7.263   0.7416
  7.252   0.8034
  7.242   0.8240
  7.232   0.8446
  7.222   0.8652
  7.212   0.8446
  7.202   0.8137
  7.192   0.7931
  7.182   0.7725
  7.172   0.8446
  7.162   0.8652
  7.152   0.8755
  7.143   0.8549
  7.133   0.8755
  7.123   0.8858
  7.113   0.9064
  7.103   0.9064
  7.094   0.9373
  7.084   0.9064
  7.074   0.9270
  7.065   0.9476
  7.055   0.9682
  7.046   0.9064
  7.036   0.8858
  7.026   0.8652
  7.017   0.9167
  7.007   0.9064
  6.998   0.9064
  6.989   0.9373
  6.979   0.9682
  6.970   0.9785
  6.960   1.0403
  6.951   1.0094
  6.942   0.9682
  6.932   1.0197
  6.923   1.0506
  6.914   1.0094
  6.905   1.0094
  6.896   1.0403
  6.886   1.0300
  6.877   0.9682
  6.868   0.9373
  6.859   0.9991
  6.850   1.0712
  6.841   1.0403
  6.832   1.0300
  6.823   1.0609
  6.814   1.0918
  6.805   1.0609
  6.796   1.0815
  6.787   1.0506
  6.778   1.0506
  6.770   1.1124
  6.761   1.1021
  6.752   1.0712
  6.743   1.1742
  6.734   1.2257
  6.726   1.2051
  6.717   1.2257
  6.708   1.2257
  6.700   1.2154
  6.691   1.2463
  6.682   1.2463
  6.674   1.3081
  6.665   1.3081
  6.657   1.3287
  6.648   1.3493
  6.640   1.3596
  6.631   1.3699
  6.623   1.3699
  6.614   1.3287
  6.606   1.3287
  6.597   1.2978
  6.589   1.2772
  6.581   1.3184
  6.572   1.3596
  6.564   1.3493
  6.556   1.3802
  6.547   1.3905
  6.539   1.3699
  6.531   1.3184
  6.523   1.3905
  6.514   1.4626
  6.506   1.4626
  6.498   1.4317
  6.490   1.4523
  6.482   1.4729
  6.474   1.5244
  6.466   1.5656
  6.458   1.4626
  6.450   1.4420
  6.442   1.4935
  6.434   1.5244
  6.426   1.5965
  6.418   1.6274
  6.410   1.6171
  6.402   1.5759
  6.394   1.5656
  6.386   1.5759
  6.378   1.5553
  6.370   1.5347
  6.363   1.5553
  6.355   1.5141
  6.347   1.4420
  6.339   1.4420
  6.332   1.4626
  6.324   1.4111
  6.316   1.4420
  6.308   1.4420
  6.301   1.4420
  6.293   1.4008
  6.286   1.4317
  6.278   1.4008
  6.270   1.3699
  6.263   1.4008
  6.255   1.4626
  6.248   1.4317
  6.240   1.4317
  6.233   1.4626
  6.225   1.4626
  6.218   1.3802
  6.210   1.4008
  6.203   1.4214
  6.195   1.4008
  6.188   1.3699
  6.181   1.4626
  6.173   1.4523
  6.166   1.3802
  6.159   1.3699
  6.151   1.3493
  6.144   1.3493
  6.137   1.3905
  6.130   1.3905
  6.122   1.4214
  6.115   1.4420
  6.108   1.4317
  6.101   1.4214
  6.094   1.4420
  6.086   1.4729
  6.079   1.4729
  6.072   1.5038
  6.065   1.4935
  6.058   1.4626
  6.051   1.4729
  6.044   1.5038
  6.037   1.4832
  6.030   1.4832
  6.023   1.4935
  6.016   1.4832
  6.009   1.5141
  6.002   1.5141
  5.995   1.4832
  5.988   1.5244
  5.981   1.5759
  5.974   1.4729
  5.967   1.4111
  5.960   1.4626
  5.954   1.5553
  5.947   1.5965
  5.940   1.6274
  5.933   1.5862
  5.926   1.6068
  5.920   1.5656
  5.913   1.5759
  5.906   1.5965
  5.899   1.6480
  5.893   1.7201
  5.886   1.7922
  5.879   1.8128
  5.873   1.7510
  5.866   1.7304
  5.859   1.7922
  5.853   1.8128
  5.846   1.8025
  5.840   1.8128
  5.833   1.8746
  5.827   1.8746
  5.820   1.9261
  5.813   1.9364
  5.807   1.9364
  5.800   1.9261
  5.794   1.9158
  5.788   1.8952
  5.781   1.9158
  5.775   1.8952
  5.768   1.9055
  5.762   1.9364
  5.755   2.0291
  5.749   2.0085
  5.743   1.9364
  5.736   1.9055
  5.730   1.9364
  5.724   2.0085
  5.717   2.0497
  5.711   2.0909
  5.705   2.2042
  5.698   2.2248
  5.692   2.1836
  5.686   2.1939
  5.680   2.2248
  5.674   2.2351
  5.667   2.2969
  5.661   2.2660
  5.655   2.2351
  5.649   2.2248
  5.643   2.2145
  5.637   2.2042
  5.630   2.2145
  5.624   2.2351
  5.618   2.2454
  5.612   2.2042
  5.606   2.2145
  5.600   2.2248
  5.594   2.2145
  5.588   2.2248
  5.582   2.2248
  5.576   2.2145
  5.570   2.2145
  5.564   2.1939
  5.558   2.1836
  5.552   2.2351
  5.546   2.2866
  5.540   2.2763
  5.534   2.3072
  5.528   2.3175
  5.523   2.3175
  5.517   2.3175
  5.511   2.3484
  5.505   2.3793
  5.499   2.3896
  5.493   2.4205
  5.487   2.4514
  5.482   2.4308
  5.476   2.4102
  5.470   2.4411
  5.464   2.5132
  5.459   2.5544
  5.453   2.5132
  5.447   2.4926
  5.441   2.5029
  5.436   2.5029
  5.430   2.5235
  5.424   2.5647
  5.419   2.5750
  5.413   2.5441
  5.407   2.4823
  5.402   2.4823
  5.396   2.5235
  5.390   2.5544
  5.385   2.5235
  5.379   2.4617
  5.374   2.4308
  5.368   2.4205
  5.363   2.3690
  5.357   2.3381
  5.352   2.3587
  5.346   2.4102
  5.341   2.4205
  5.335   2.3999
  5.330   2.3690
  5.324   2.3278
  5.319   2.3896
  5.313   2.4205
  5.308   2.4205
  5.302   2.3896
  5.297   2.4102
  5.291   2.4411
  5.286   2.4411
  5.281   2.4514
  5.275   2.5132
  5.270   2.5235
  5.265   2.5338
  5.259   2.5750
  5.254   2.6265
  5.249   2.6471
  5.243   2.5853
  5.238   2.5647
  5.233   2.6059
  5.227   2.6574
  5.222   2.6883
  5.217   2.7089
  5.212   2.7604
  5.206   2.7707
  5.201   2.7810
  5.196   2.8119
  5.191   2.8325
  5.186   2.8531
  5.180   2.8840
  5.175   2.8428
  5.170   2.8222
  5.165   2.8428
  5.160   2.8531
  5.155   2.8222
  5.150   2.8737
  5.145   2.8840
  5.139   2.8531
  5.134   2.8222
  5.129   2.8119
  5.124   2.8634
  5.119   2.8943
  5.114   2.8840
  5.109   2.8634
  5.104   2.8325
  5.099   2.8325
  5.094   2.8325
  5.089   2.8531
  5.084   2.8737
  5.079   2.8840
  5.074   2.8531
  5.069   2.8634
  5.064   2.8634
  5.059   2.8531
  5.054   2.9149
  5.049   2.9664
  5.044   2.9355
  5.040   2.8943
  5.035   2.8943
  5.030   2.9149
  5.025   2.9458
  5.020   2.9355
  5.015   2.9046
  5.010   2.9149
  5.005   2.8943
  5.001   2.8634
  4.996   2.8325
  4.991   2.8325
  4.986   2.8943
  4.981   2.9561
  4.977   2.9870
  4.972   3.0076
  4.967   3.0179
  4.962   3.0488
  4.958   3.0591
  4.953   3.0694
  4.948   3.1106
  4.943   3.1415
  4.939   3.1827
  4.934   3.1621
  4.929   3.1724
  4.925   3.2445
  4.920   3.2548
  4.915   3.2445
  4.911   3.2548
  4.906   3.3063
  4.901   3.3681
  4.897   3.4093
  4.892   3.4505
  4.888   3.5123
  4.883   3.6256
  4.878   3.6771
  4.874   3.7389
  4.869   3.8419
  4.865   3.9552
  4.860   3.9964
  4.856   4.0479
  4.851   4.0994
  4.846   4.1303
  4.842   4.1715
  4.837   4.2436
  4.833   4.3363
  4.828   4.3672
  4.824   4.3878
  4.819   4.4290
  4.815   4.4599
  4.810   4.5217
  4.806   4.6144
  4.802   4.6453
  4.797   4.6453
  4.793   4.6659
  4.788   4.7174
  4.784   4.7483
  4.779   4.8101
  4.775   4.8204
  4.771   4.8204
  4.766   4.9337
  4.762   4.9749
  4.758   4.9749
  4.753   4.9852
  4.749   4.9749
  4.744   4.9852
  4.740   5.0573
  4.736   5.0882
  4.731   5.0470
  4.727   5.0058
  4.723   5.0058
  4.719   5.0058
  4.714   4.9749
  4.710   4.9955
  4.706   4.9337
  4.701   4.8616
  4.697   4.8410
  4.693   4.8616
  4.689   4.7792
  4.684   4.7174
  4.680   4.7174
  4.676   4.7071
  4.672   4.6865
  4.668   4.7380
  4.663   4.8204
  4.659   4.9028
  4.655   4.9955
  4.651   5.0779
  4.647   5.1706
  4.643   5.2530
  4.638   5.3045
  4.634   5.3560
  4.630   5.4384
  4.626   5.5208
  4.622   5.6135
  4.618   5.6753
  4.614   5.6650
  4.610   5.7165
  4.605   5.7680
  4.601   5.7989
  4.597   5.7680
  4.593   5.7680
  4.589   5.8092
  4.585   5.8195
  4.581   5.9122
  4.577   5.9431
  4.573   5.9328
  4.569   5.9328
  4.565   5.9225
  4.561   5.9225
  4.557   5.9328
  4.553   5.9431
  4.549   5.8607
  4.545   5.6959
  4.541   5.6341
  4.537   5.6341
  4.533   5.5723
  4.529   5.4899
  4.525   5.4693
  4.521   5.4178
  4.517   5.3045
  4.513   5.2015
  4.509   5.0676
  4.505   4.9131
  4.502   4.8513
  4.498   4.7998
  4.494   4.8204
  4.490   4.7792
  4.486   4.7689
  4.482   4.7895
  4.478   4.7792
  4.474   4.6865
  4.470   4.7174
  4.467   4.7792
  4.463   4.7483
  4.459   4.7380
  4.455   4.7483
  4.451   4.8204
  4.447   4.8822
  4.444   4.9131
  4.440   4.9337
  4.436   4.9646
  4.432   5.0367
  4.428   5.0470
  4.425   5.0470
  4.421   5.1088
  4.417   5.1397
  4.413   5.2118
  4.410   5.2118
  4.406   5.2015
  4.402   5.2633
  4.398   5.3766
  4.395   5.4899
  4.391   5.5002
  4.387   5.5517
  4.384   5.6547
  4.380   5.7680
  4.376   5.8607
  4.372   5.9122
  4.369   5.9740
  4.365   6.0564
  4.361   6.1594
  4.358   6.1697
  4.354   6.2418
  4.350   6.3448
  4.347   6.3963
  4.343   6.4684
  4.340   6.5508
  4.336   6.5611
  4.332   6.5302
  4.329   6.5508
  4.325   6.5920
  4.321   6.6538
  4.318   6.7465
  4.314   6.7774
  4.311   6.7362
  4.307   6.6847
  4.304   6.6538
  4.300   6.6538
  4.296   6.6332
  4.293   6.6950
  4.289   6.7671
  4.286   6.8289
  4.282   6.8907
  4.279   6.8907
  4.275   6.8289
  4.272   6.8907
  4.268   6.9113
  4.265   6.9113
  4.261   6.9937
  4.258   7.0349
  4.254   7.0040
  4.251   7.0761
  4.247   7.0864
  4.244   7.1173
  4.240   7.1482
  4.237   7.1276
  4.233   7.1379
  4.230   7.2100
  4.226   7.3439
  4.223   7.4160
  4.219   7.3851
  4.216   7.3336
  4.213   7.3027
  4.209   7.3027
  4.206   7.2924
  4.202   7.2821
  4.199   7.3130
  4.196   7.3027
  4.192   7.3130
  4.189   7.3851
  4.185   7.4572
  4.182   7.5190
  4.179   7.4881
  4.175   7.5190
  4.172   7.6014
  4.169   7.5602
  4.165   7.6220
  4.162   7.7662
  4.159   7.7971
  4.155   7.7765
  4.152   7.8074
  4.149   7.8898
  4.145   7.8795
  4.142   7.8692
  4.139   7.9516
  4.135   7.9928
  4.132   8.0546
  4.129   8.0546
  4.126   8.0546
  4.122   8.1885
  4.119   8.3018
  4.116   8.3430
  4.112   8.3636
  4.109   8.3636
  4.106   8.4151
  4.103   8.4563
  4.099   8.5593
  4.096   8.5799
  4.093   8.5902
  4.090   8.6211
  4.086   8.6108
  4.083   8.7962
  4.080   8.8992
  4.077   8.8683
  4.074   8.8477
  4.070   8.8580
  4.067   8.8580
  4.064   8.9095
  4.061   8.8786
  4.058   8.8168
  4.055   8.7962
  4.051   8.8271
  4.048   8.8271
  4.045   8.8374
  4.042   8.8271
  4.039   8.7447
  4.036   8.6829
  4.032   8.6314
  4.029   8.5593
  4.026   8.5181
  4.023   8.4769
  4.020   8.4254
  4.017   8.3430
  4.014   8.3636
  4.011   8.3018
  4.008   8.1576
  4.004   8.1267
  4.001   8.1473
  3.998   8.0237
  3.995   8.0031
  3.992   8.0340
  3.989   7.8589
  3.986   7.7353
  3.983   7.7971
  3.980   7.8795
  3.977   7.9722
  3.974   7.9310
  3.971   7.9310
  3.968   7.9207
  3.965   7.9104
  3.962   7.9619
  3.959   8.1061
  3.956   8.3121
  3.953   8.4048
  3.950   8.3430
  3.947   8.3224
  3.944   8.4460
  3.941   8.6108
  3.938   8.6932
  3.935   8.6932
  3.932   8.7344
  3.929   8.8374
  3.926   8.8580
  3.923   8.9301
  3.920   8.9816
  3.917   8.9713
  3.914   8.9610
  3.911   8.9919
  3.908   8.9816
  3.905   8.9404
  3.902   8.9095
  3.899   8.9507
  3.896   8.9610
  3.893   8.8786
  3.890   8.8992
  3.887   8.9610
  3.884   8.9713
  3.882   8.9404
  3.879   8.8580
  3.876   8.7756
  3.873   8.7550
  3.870   8.8065
  3.867   8.7653
  3.864   8.7756
  3.861   8.8477
  3.858   8.8683
  3.856   8.8065
  3.853   8.7138
  3.850   8.6623
  3.847   8.6623
  3.844   8.6623
  3.841   8.7550
  3.838   8.8168
  3.836   8.7756
  3.833   8.7241
  3.830   8.7241
  3.827   8.8683
  3.824   8.9507
  3.822   8.8477
  3.819   8.8065
  3.816   8.8065
  3.813   8.7756
  3.810   8.8065
  3.807   8.9301
  3.805   8.9507
  3.802   8.9404
  3.799   8.9919
  3.796   9.0434
  3.794   8.9919
  3.791   8.9198
  3.788   8.8992
  3.785   8.9919
  3.782   8.9198
  3.780   8.7859
  3.777   8.7344
  3.774   8.6829
  3.771   8.7035
  3.769   8.7859
  3.766   8.8271
  3.763   8.8065
  3.761   8.7550
  3.758   8.6108
  3.755   8.5284
  3.752   8.5696
  3.750   8.5387
  3.747   8.5387
  3.744   8.4563
  3.742   8.3739
  3.739   8.3842
  3.736   8.4048
  3.733   8.3739
  3.731   8.4048
  3.728   8.4254
  3.725   8.4563
  3.723   8.3533
  3.720   8.3224
  3.717   8.3945
  3.715   8.4769
  3.712   8.4048
  3.709   8.3327
  3.707   8.2503
  3.704   8.3327
  3.702   8.4254
  3.699   8.4048
  3.696   8.3739
  3.694   8.3945
  3.691   8.3945
  3.688   8.3842
  3.686   8.4357
  3.683   8.4357
  3.680   8.3636
  3.678   8.3224
  3.675   8.3121
  3.673   8.3224
  3.670   8.3018
  3.667   8.2297
  3.665   8.1782
  3.662   8.1679
  3.660   8.1679
  3.657   8.2194
  3.655   8.1885
  3.652   8.1370
  3.649   8.1576
  3.647   8.1988
  3.644   8.0752
  3.642   8.0340
  3.639   8.0546
  3.637   8.0443
  3.634   7.9928
  3.632   7.9722
  3.629   7.9516
  3.626   7.8486
  3.624   7.7765
  3.621   7.7868
  3.619   7.7868
  3.616   7.8589
  3.614   7.7765
  3.611   7.6323
  3.609   7.5705
  3.606   7.5808
  3.604   7.5602
  3.601   7.6014
  3.599   7.5705
  3.596   7.4572
  3.594   7.3748
  3.591   7.3954
  3.589   7.3233
  3.586   7.2100
  3.584   7.1997
  3.581   7.2512
  3.579   7.1791
  3.576   7.2203
