Name: Altered volcanic tuff
Type: Rock
Class: Igneous
Subclass: Felsic
Particle Size: Whole rock chips
Sample No.: Cup7
Owner: USGS
Wavelength range: 0.40 - 14.05 um
Origin: Cuprite, Nevada

Description: Altered volcanic tuff, white





Measurement: Directional Hemispherical Reflectance
First Column: X
Second Column: Y
X Units: Wavelength (micrometers)
Y Units: Reflectance (percent)
First X Value: 14.05105
Last X Value: 0.40000
Number of X Values: 2756
Additional Information: None

 14.051   7.5602
 14.013   7.1791
 13.975   6.9216
 13.938   6.5199
 13.900   6.1182
 13.863   5.6547
 13.826   5.4281
 13.790   4.9337
 13.753   4.3775
 13.717   3.9552
 13.680   3.7595
 13.644   3.3887
 13.609   3.0282
 13.573   2.7913
 13.538   2.7810
 13.502   2.6986
 13.467   2.5441
 13.432   2.3072
 13.398   2.1836
 13.363   2.1424
 13.329   2.1012
 13.295   2.0188
 13.261   2.0394
 13.227   1.9982
 13.193   2.0703
 13.160   1.9776
 13.126   1.9673
 13.093   1.9570
 13.060   2.0085
 13.027   1.9673
 12.995   1.9673
 12.962   2.0497
 12.930   2.1424
 12.898   2.0909
 12.866   2.1836
 12.834   2.1630
 12.802   2.2042
 12.771   2.1733
 12.739   2.0909
 12.708   2.0085
 12.677   1.9570
 12.646   1.8746
 12.616   1.9673
 12.585   1.9776
 12.554   1.8849
 12.524   1.7510
 12.494   1.6892
 12.464   1.7201
 12.434   1.8128
 12.404   1.7304
 12.375   1.6171
 12.345   1.5244
 12.316   1.6171
 12.287   1.6480
 12.258   1.6789
 12.229   1.6789
 12.200   1.6789
 12.171   1.6995
 12.143   1.9158
 12.115   1.9055
 12.086   1.9055
 12.058   1.9776
 12.030   2.0600
 12.002   2.0085
 11.975   2.0703
 11.947   2.1218
 11.920   2.1321
 11.892   2.1424
 11.865   2.2145
 11.838   2.2145
 11.811   2.3278
 11.784   2.3793
 11.757   2.3793
 11.731   2.3999
 11.704   2.4926
 11.678   2.5853
 11.652   2.6059
 11.626   2.5544
 11.600   2.6780
 11.574   2.7501
 11.548   2.7707
 11.522   2.8016
 11.497   2.9046
 11.471   2.8943
 11.446   2.9252
 11.421   2.8943
 11.396   2.8840
 11.371   2.8943
 11.346   2.9767
 11.321   3.0179
 11.297   3.1106
 11.272   3.1312
 11.248   3.1518
 11.223   3.1930
 11.199   3.2548
 11.175   3.2548
 11.151   3.3063
 11.127   3.3269
 11.103   3.2857
 11.079   3.2754
 11.056   3.3681
 11.032   3.4505
 11.009   3.5226
 10.985   3.4608
 10.962   3.4814
 10.939   3.4608
 10.916   3.5638
 10.893   3.5741
 10.870   3.6771
 10.848   3.7286
 10.825   3.7286
 10.802   3.6256
 10.780   3.6565
 10.758   3.6462
 10.735   3.7183
 10.713   3.7904
 10.691   3.8625
 10.669   3.8625
 10.647   3.8625
 10.625   3.8728
 10.604   3.9552
 10.582   3.9758
 10.560   4.0376
 10.539   4.0994
 10.518   4.1612
 10.496   4.1818
 10.475   4.2745
 10.454   4.3157
 10.433   4.3569
 10.412   4.3569
 10.391   4.4599
 10.370   4.5938
 10.350   4.6968
 10.329   4.6865
 10.309   4.6968
 10.288   4.7689
 10.268   4.8925
 10.247   5.0058
 10.227   5.1294
 10.207   5.1397
 10.187   5.2221
 10.167   5.3045
 10.147   5.4796
 10.127   5.5517
 10.108   5.6444
 10.088   5.7577
 10.068   5.8504
 10.049   5.8916
 10.029   5.9843
 10.010   6.0358
  9.991   6.1491
  9.972   6.2727
  9.952   6.4169
  9.933   6.5199
  9.914   6.5920
  9.895   6.6744
  9.877   6.9422
  9.858   7.0864
  9.839   7.2409
  9.821   7.3542
  9.802   7.5293
  9.783   7.6735
  9.765   7.8486
  9.747   8.0855
  9.728   8.4769
  9.710   8.4460
  9.692   7.9928
  9.674   7.5396
  9.656   7.4675
  9.638   7.5499
  9.620   7.7044
  9.602   7.8383
  9.585   7.9516
  9.567   8.0340
  9.549   8.2194
  9.532   8.3430
  9.514   8.4460
  9.497   8.5490
  9.479   8.7344
  9.462   8.9919
  9.445   9.2391
  9.428   9.4245
  9.411   9.7335
  9.394  10.0528
  9.377  10.4545
  9.360  10.8459
  9.343  11.3918
  9.326  12.0819
  9.309  12.9265
  9.293  13.6063
  9.276  14.1419
  9.259  14.5436
  9.243  14.9144
  9.226  15.2955
  9.210  15.6869
  9.194  15.9032
  9.178  16.2019
  9.161  16.5109
  9.145  16.7581
  9.129  16.9538
  9.113  17.2525
  9.097  17.5409
  9.081  17.6954
  9.065  17.7469
  9.049  17.9117
  9.034  18.0662
  9.018  18.1692
  9.002  18.2825
  8.987  18.4267
  8.971  18.4370
  8.956  18.4164
  8.940  18.3546
  8.925  18.1898
  8.909  18.0250
  8.894  17.9838
  8.879  17.8087
  8.864  17.5924
  8.849  17.3555
  8.834  17.0362
  8.819  16.7478
  8.804  16.6036
  8.789  16.4079
  8.774  16.0371
  8.759  15.6354
  8.744  15.3058
  8.730  14.9041
  8.715  14.5230
  8.700  14.1316
  8.686  13.7505
  8.671  13.1634
  8.657  12.4836
  8.642  11.7935
  8.628  11.2476
  8.614  11.1961
  8.599  11.8347
  8.585  12.6381
  8.571  13.1531
  8.557  13.1325
  8.543  12.7205
  8.529  11.9995
  8.515  11.2373
  8.501  10.4751
  8.487   9.7850
  8.473   9.1876
  8.459   8.7447
  8.445   8.3018
  8.431   7.9413
  8.418   7.5705
  8.404   7.2615
  8.391   7.0349
  8.377   6.8804
  8.363   6.6847
  8.350   6.4272
  8.337   6.2418
  8.323   6.1594
  8.310   5.9946
  8.297   5.8195
  8.283   5.7268
  8.270   5.7371
  8.257   5.6547
  8.244   5.6032
  8.231   5.5105
  8.218   5.4899
  8.205   5.5105
  8.192   5.5105
  8.179   5.4796
  8.166   5.5105
  8.153   5.5620
  8.140   5.5723
  8.128   5.4693
  8.115   5.4281
  8.102   5.3766
  8.090   5.3972
  8.077   5.4075
  8.064   5.4281
  8.052   5.4281
  8.039   5.4899
  8.027   5.5826
  8.015   5.7062
  8.002   5.7577
  7.990   5.8401
  7.978   5.8916
  7.965   6.0152
  7.953   6.0873
  7.941   6.1800
  7.929   6.1491
  7.917   6.1285
  7.905   6.0667
  7.893   6.0049
  7.881   5.8092
  7.869   5.5517
  7.857   5.2942
  7.845   5.0367
  7.833   4.6968
  7.821   4.3878
  7.809   4.1097
  7.798   3.8316
  7.786   3.4402
  7.774   3.0900
  7.763   2.8222
  7.751   2.6265
  7.739   2.3381
  7.728   2.1527
  7.716   2.0394
  7.705   1.9776
  7.694   1.8437
  7.682   1.7201
  7.671   1.6480
  7.659   1.5656
  7.648   1.4214
  7.637   1.3596
  7.626   1.3493
  7.614   1.2978
  7.603   1.1948
  7.592   1.1742
  7.581   1.1948
  7.570   1.1639
  7.559   1.0815
  7.548   1.1021
  7.537   1.1021
  7.526   1.0918
  7.515   1.0506
  7.504   1.0609
  7.493   1.0815
  7.483   1.1021
  7.472   1.0609
  7.461   1.0609
  7.450   1.0300
  7.440   1.0300
  7.429   1.0506
  7.418   1.0609
  7.408   1.0300
  7.397   1.0609
  7.387   1.0403
  7.376   1.0609
  7.366   1.0506
  7.355   1.0403
  7.345   1.0403
  7.334   1.0403
  7.324   0.9682
  7.314   1.0506
  7.303   1.1433
  7.293   1.1021
  7.283   1.0403
  7.273   1.0712
  7.263   1.0609
  7.252   1.1124
  7.242   1.1124
  7.232   1.1021
  7.222   1.0094
  7.212   1.0609
  7.202   1.0815
  7.192   1.0815
  7.182   1.0300
  7.172   1.0506
  7.162   1.0712
  7.152   1.1124
  7.143   1.0918
  7.133   1.0815
  7.123   1.0609
  7.113   1.1124
  7.103   1.1021
  7.094   1.0712
  7.084   1.0506
  7.074   1.0815
  7.065   1.0506
  7.055   1.0609
  7.046   1.0712
  7.036   1.0094
  7.026   0.9476
  7.017   1.0094
  7.007   1.1124
  6.998   1.1433
  6.989   1.0506
  6.979   1.0609
  6.970   1.0815
  6.960   1.1124
  6.951   1.1227
  6.942   1.1330
  6.932   1.1433
  6.923   1.1948
  6.914   1.1227
  6.905   1.0815
  6.896   1.1124
  6.886   1.2257
  6.877   1.2257
  6.868   1.2051
  6.859   1.1948
  6.850   1.1845
  6.841   1.1742
  6.832   1.1433
  6.823   1.1021
  6.814   1.1948
  6.805   1.2257
  6.796   1.2154
  6.787   1.1845
  6.778   1.2257
  6.770   1.2669
  6.761   1.2978
  6.752   1.2463
  6.743   1.1948
  6.734   1.2154
  6.726   1.2978
  6.717   1.3493
  6.708   1.3802
  6.700   1.3596
  6.691   1.3596
  6.682   1.3493
  6.674   1.3390
  6.665   1.3699
  6.657   1.4832
  6.648   1.4832
  6.640   1.4626
  6.631   1.4523
  6.623   1.4832
  6.614   1.4935
  6.606   1.4626
  6.597   1.4832
  6.589   1.5244
  6.581   1.5141
  6.572   1.5656
  6.564   1.5965
  6.556   1.6274
  6.547   1.6171
  6.539   1.6068
  6.531   1.5553
  6.523   1.6068
  6.514   1.6995
  6.506   1.7510
  6.498   1.7510
  6.490   1.7819
  6.482   1.7922
  6.474   1.8128
  6.466   1.6995
  6.458   1.6789
  6.450   1.7716
  6.442   1.8334
  6.434   1.8025
  6.426   1.8437
  6.418   1.8746
  6.410   1.9261
  6.402   1.8746
  6.394   1.8643
  6.386   1.8437
  6.378   1.8231
  6.370   1.8128
  6.363   1.7922
  6.355   1.8231
  6.347   1.8025
  6.339   1.7098
  6.332   1.7407
  6.324   1.7510
  6.316   1.7201
  6.308   1.6892
  6.301   1.7716
  6.293   1.7819
  6.286   1.7201
  6.278   1.6686
  6.270   1.6789
  6.263   1.6995
  6.255   1.7304
  6.248   1.6789
  6.240   1.6789
  6.233   1.6892
  6.225   1.7201
  6.218   1.6789
  6.210   1.6583
  6.203   1.6789
  6.195   1.6892
  6.188   1.6789
  6.181   1.6377
  6.173   1.5656
  6.166   1.6068
  6.159   1.6583
  6.151   1.6377
  6.144   1.5862
  6.137   1.5450
  6.130   1.5141
  6.122   1.5965
  6.115   1.6274
  6.108   1.6686
  6.101   1.6583
  6.094   1.6583
  6.086   1.5965
  6.079   1.5553
  6.072   1.5965
  6.065   1.7098
  6.058   1.6480
  6.051   1.6171
  6.044   1.6583
  6.037   1.6377
  6.030   1.6377
  6.023   1.7304
  6.016   1.7510
  6.009   1.7407
  6.002   1.7304
  5.995   1.7716
  5.988   1.8128
  5.981   1.8128
  5.974   1.7819
  5.967   1.8334
  5.960   1.8540
  5.954   1.8540
  5.947   1.8540
  5.940   1.8334
  5.933   1.8849
  5.926   1.9776
  5.920   1.9673
  5.913   1.9982
  5.906   1.9879
  5.899   1.9982
  5.893   2.0085
  5.886   2.0394
  5.879   2.1012
  5.873   2.1836
  5.866   2.1939
  5.859   2.2351
  5.853   2.2557
  5.846   2.3072
  5.840   2.3072
  5.833   2.2969
  5.827   2.3175
  5.820   2.3690
  5.813   2.3793
  5.807   2.3999
  5.800   2.4205
  5.794   2.4205
  5.788   2.3999
  5.781   2.4411
  5.775   2.4823
  5.768   2.4823
  5.762   2.4205
  5.755   2.3999
  5.749   2.3896
  5.743   2.4308
  5.736   2.4823
  5.730   2.5647
  5.724   2.5441
  5.717   2.5647
  5.711   2.5750
  5.705   2.5338
  5.698   2.5235
  5.692   2.5853
  5.686   2.6368
  5.680   2.6780
  5.674   2.7089
  5.667   2.6986
  5.661   2.6368
  5.655   2.6059
  5.649   2.6265
  5.643   2.6986
  5.637   2.6986
  5.630   2.7192
  5.624   2.7295
  5.618   2.7913
  5.612   2.7913
  5.606   2.7604
  5.600   2.7604
  5.594   2.7913
  5.588   2.7501
  5.582   2.7089
  5.576   2.6883
  5.570   2.6986
  5.564   2.7295
  5.558   2.7810
  5.552   2.7913
  5.546   2.8016
  5.540   2.7913
  5.534   2.8428
  5.528   2.8737
  5.523   2.9252
  5.517   2.8840
  5.511   2.9046
  5.505   2.8737
  5.499   2.8531
  5.493   2.8840
  5.487   2.9561
  5.482   3.0282
  5.476   3.1003
  5.470   3.0385
  5.464   2.9870
  5.459   2.9767
  5.453   3.0076
  5.447   3.0076
  5.441   3.0488
  5.436   3.1003
  5.430   3.1209
  5.424   3.0694
  5.419   3.0900
  5.413   3.0797
  5.407   3.0591
  5.402   2.9870
  5.396   2.9046
  5.390   2.8325
  5.385   2.8119
  5.379   2.8016
  5.374   2.8016
  5.368   2.7604
  5.363   2.7604
  5.357   2.7398
  5.352   2.7089
  5.346   2.7089
  5.341   2.7089
  5.335   2.6883
  5.330   2.7089
  5.324   2.6780
  5.319   2.6677
  5.313   2.6574
  5.308   2.6986
  5.302   2.7295
  5.297   2.7604
  5.291   2.7707
  5.286   2.8016
  5.281   2.7913
  5.275   2.8428
  5.270   2.8531
  5.265   2.8325
  5.259   2.8737
  5.254   2.9870
  5.249   3.0385
  5.243   3.0282
  5.238   3.0385
  5.233   3.1415
  5.227   3.1827
  5.222   3.2239
  5.217   3.2960
  5.212   3.3681
  5.206   3.3578
  5.201   3.3887
  5.196   3.4196
  5.191   3.4814
  5.186   3.5226
  5.180   3.5535
  5.175   3.5844
  5.170   3.6359
  5.165   3.6359
  5.160   3.6565
  5.155   3.6874
  5.150   3.7492
  5.145   3.7492
  5.139   3.7595
  5.134   3.7595
  5.129   3.7183
  5.124   3.6874
  5.119   3.6977
  5.114   3.7286
  5.109   3.7698
  5.104   3.7492
  5.099   3.7595
  5.094   3.7286
  5.089   3.7183
  5.084   3.6977
  5.079   3.7080
  5.074   3.7080
  5.069   3.7389
  5.064   3.7389
  5.059   3.7492
  5.054   3.6771
  5.049   3.6668
  5.044   3.6874
  5.040   3.7080
  5.035   3.6668
  5.030   3.6771
  5.025   3.6771
  5.020   3.6462
  5.015   3.6256
  5.010   3.6462
  5.005   3.6153
  5.001   3.6359
  4.996   3.6359
  4.991   3.6359
  4.986   3.6771
  4.981   3.6874
  4.977   3.6359
  4.972   3.6359
  4.967   3.6977
  4.962   3.7080
  4.958   3.6874
  4.953   3.7080
  4.948   3.7080
  4.943   3.7904
  4.939   3.7904
  4.934   3.7904
  4.929   3.7904
  4.925   3.8007
  4.920   3.8522
  4.915   3.9243
  4.911   3.9449
  4.906   3.9449
  4.901   3.9758
  4.897   4.0582
  4.892   4.0788
  4.888   4.0891
  4.883   4.0891
  4.878   4.0788
  4.874   4.1097
  4.869   4.1406
  4.865   4.1406
  4.860   4.1818
  4.856   4.1406
  4.851   4.0582
  4.846   3.9964
  4.842   4.0685
  4.837   4.1921
  4.833   4.3054
  4.828   4.3878
  4.824   4.4702
  4.819   4.4702
  4.815   4.4702
  4.810   4.4908
  4.806   4.5526
  4.802   4.5835
  4.797   4.5938
  4.793   4.5011
  4.788   4.4393
  4.784   4.3672
  4.779   4.2436
  4.775   4.0479
  4.771   3.9346
  4.766   3.8007
  4.762   3.6050
  4.758   3.5020
  4.753   3.4917
  4.749   3.3578
  4.744   3.2548
  4.740   3.2342
  4.736   3.1415
  4.731   3.0282
  4.727   2.9973
  4.723   3.0076
  4.719   3.0179
  4.714   3.0179
  4.710   3.0591
  4.706   3.1003
  4.701   3.1209
  4.697   3.1003
  4.693   3.0900
  4.689   3.1106
  4.684   3.1209
  4.680   3.1106
  4.676   3.1518
  4.672   3.1930
  4.668   3.2548
  4.663   3.2445
  4.659   3.1930
  4.655   3.1415
  4.651   3.2033
  4.647   3.2445
  4.643   3.2033
  4.638   3.1827
  4.634   3.2445
  4.630   3.2342
  4.626   3.1312
  4.622   3.0797
  4.618   3.0694
  4.614   3.0591
  4.610   3.1209
  4.605   3.0694
  4.601   2.9973
  4.597   2.9664
  4.593   2.9355
  4.589   2.9252
  4.585   2.9973
  4.581   2.9973
  4.577   2.9870
  4.573   2.9767
  4.569   3.0591
  4.565   3.0488
  4.561   3.0179
  4.557   2.9973
  4.553   3.0900
  4.549   3.1518
  4.545   3.2033
  4.541   3.1930
  4.537   3.1724
  4.533   3.1518
  4.529   3.1724
  4.525   3.1930
  4.521   3.1724
  4.517   3.2136
  4.513   3.2445
  4.509   3.2033
  4.505   3.1930
  4.502   3.1312
  4.498   3.1621
  4.494   3.2033
  4.490   3.1827
  4.486   3.1827
  4.482   3.2239
  4.478   3.2239
  4.474   3.2445
  4.470   3.2857
  4.467   3.3269
  4.463   3.2960
  4.459   3.2960
  4.455   3.3063
  4.451   3.3681
  4.447   3.3887
  4.444   3.4402
  4.440   3.4299
  4.436   3.3578
  4.432   3.2857
  4.428   3.3578
  4.425   3.3990
  4.421   3.4093
  4.417   3.4196
  4.413   3.3990
  4.410   3.4093
  4.406   3.5226
  4.402   3.5947
  4.398   3.5432
  4.395   3.4608
  4.391   3.4917
  4.387   3.4814
  4.384   3.4711
  4.380   3.4402
  4.376   3.3887
  4.372   3.3372
  4.369   3.3578
  4.365   3.3990
  4.361   3.4299
  4.358   3.4299
  4.354   3.5020
  4.350   3.4917
  4.347   3.4505
  4.343   3.4608
  4.340   3.5535
  4.336   3.6153
  4.332   3.6874
  4.329   3.6977
  4.325   3.7080
  4.321   3.6977
  4.318   3.8419
  4.314   3.9243
  4.311   3.9861
  4.307   4.0273
  4.304   4.0685
  4.300   4.0891
  4.296   4.1612
  4.293   4.1509
  4.289   4.1921
  4.286   4.2745
  4.282   4.2436
  4.279   4.2745
  4.275   4.4290
  4.272   4.4805
  4.268   4.5011
  4.265   4.3981
  4.261   4.3981
  4.258   4.5217
  4.254   4.5526
  4.251   4.5835
  4.247   4.6247
  4.244   4.6350
  4.240   4.7380
  4.237   4.8616
  4.233   4.9337
  4.230   4.9955
  4.226   5.0882
  4.223   5.0882
  4.219   5.1397
  4.216   5.2324
  4.213   5.2633
  4.209   5.2221
  4.206   5.2530
  4.202   5.2942
  4.199   5.3251
  4.196   5.2942
  4.192   5.3457
  4.189   5.3972
  4.185   5.3972
  4.182   5.4899
  4.179   5.5723
  4.175   5.5105
  4.172   5.5414
  4.169   5.5105
  4.165   5.5311
  4.162   5.4899
  4.159   5.5208
  4.155   5.5208
  4.152   5.5517
  4.149   5.5620
  4.145   5.6135
  4.142   5.6444
  4.139   5.6753
  4.135   5.6341
  4.132   5.6650
  4.129   5.6856
  4.126   5.6959
  4.122   5.7474
  4.119   5.8298
  4.116   5.8401
  4.112   5.8916
  4.109   5.9225
  4.106   5.9740
  4.103   5.9122
  4.099   5.9328
  4.096   6.0358
  4.093   6.0770
  4.090   5.9946
  4.086   6.0564
  4.083   6.1594
  4.080   6.2006
  4.077   6.2212
  4.074   6.3139
  4.070   6.3860
  4.067   6.4478
  4.064   6.4478
  4.061   6.3654
  4.058   6.3551
  4.055   6.5611
  4.051   6.5920
  4.048   6.6229
  4.045   6.6744
  4.042   6.6641
  4.039   6.6435
  4.036   6.7259
  4.032   6.7568
  4.029   6.7980
  4.026   6.8495
  4.023   6.9216
  4.020   6.9319
  4.017   6.9834
  4.014   6.9319
  4.011   6.9422
  4.008   6.9731
  4.004   7.0555
  4.001   7.0349
  3.998   6.9731
  3.995   6.9216
  3.992   6.9731
  3.989   6.9731
  3.986   7.0040
  3.983   6.9937
  3.980   6.9525
  3.977   6.9422
  3.974   6.9834
  3.971   7.0658
  3.968   7.1276
  3.965   7.0555
  3.962   7.0761
  3.959   7.1070
  3.956   7.2203
  3.953   7.2615
  3.950   7.3439
  3.947   7.3542
  3.944   7.3439
  3.941   7.4057
  3.938   7.4572
  3.935   7.4778
  3.932   7.5293
  3.929   7.4984
  3.926   7.5087
  3.923   7.4675
  3.920   7.5190
  3.917   7.5396
  3.914   7.6014
  3.911   7.5396
  3.908   7.5087
  3.905   7.5705
  3.902   7.6117
  3.899   7.6529
  3.896   7.6529
  3.893   7.6632
  3.890   7.6529
  3.887   7.6426
  3.884   7.5808
  3.882   7.4675
  3.879   7.4160
  3.876   7.2821
  3.873   7.1070
  3.870   6.9731
  3.867   7.2100
  3.864   7.4675
  3.861   7.6323
  3.858   7.6117
  3.856   7.5911
  3.853   7.5911
  3.850   7.6838
  3.847   7.7044
  3.844   7.7559
  3.841   7.7353
  3.838   7.7559
  3.836   7.7250
  3.833   7.7353
  3.830   7.7044
  3.827   7.8074
  3.824   7.8383
  3.822   7.8692
  3.819   7.8486
  3.816   7.7765
  3.813   7.7662
  3.810   7.8898
  3.807   7.8280
  3.805   7.8177
  3.802   7.7971
  3.799   7.8074
  3.796   7.8486
  3.794   7.8589
  3.791   7.7971
  3.788   7.8280
  3.785   7.8280
  3.782   7.8074
  3.780   7.8177
  3.777   7.7559
  3.774   7.7044
  3.771   7.7353
  3.769   7.6529
  3.766   7.6323
  3.763   7.6941
  3.761   7.7147
  3.758   7.6323
  3.755   7.5602
  3.752   7.5911
  3.750   7.6014
  3.747   7.4778
  3.744   7.5087
  3.742   7.5293
  3.739   7.5499
  3.736   7.5087
  3.733   7.5293
  3.731   7.4160
  3.728   7.3233
  3.725   7.3027
  3.723   7.3542
  3.720   7.3748
  3.717   7.3645
  3.715   7.2718
  3.712   7.2924
  3.709   7.2512
  3.707   7.2718
  3.704   7.3027
  3.702   7.2615
  3.699   7.1791
  3.696   7.1276
  3.694   7.1070
  3.691   7.1688
  3.688   7.1688
  3.686   7.1482
  3.683   7.1070
  3.680   7.0658
  3.678   7.0349
  3.675   7.0452
  3.673   7.0040
  3.670   6.9731
  3.667   6.9628
  3.665   6.9834
  3.662   6.9834
  3.660   7.0040
  3.657   6.9731
  3.655   6.9628
  3.652   6.9010
  3.649   6.9319
  3.647   6.8701
  3.644   6.8083
  3.642   6.7774
  3.639   6.8186
  3.637   6.7980
  3.634   6.6950
  3.632   6.6950
  3.629   6.7671
  3.626   6.7156
  3.624   6.6435
  3.621   6.6538
  3.619   6.6847
  3.616   6.6332
  3.614   6.5508
  3.611   6.4993
  3.609   6.4581
  3.606   6.3757
  3.604   6.3448
  3.601   6.3860
  3.599   6.5199
  3.596   6.4993
  3.594   6.3860
  3.591   6.3242
  3.589   6.2418
  3.586   6.1697
  3.584   6.1697
  3.581   6.1491
  3.579   6.1903
  3.576   6.1491
