Name: Unaltered volcanic tuff?
Type: Rock
Class: Igneous
Subclass: Mafic
Particle Size: Whole rock chips
Sample No.: Cup9
Owner: USGS
Wavelength range: 0.40 - 14.05 um
Origin: Cuprite, Nevada

Description: Unaltered volcanic tuff ???  Dark brown gray





Measurement: Directional Hemispherical Reflectance
First Column: X
Second Column: Y
X Units: Wavelength (micrometers)
Y Units: Reflectance (percent)
First X Value: 14.05105
Last X Value: 0.40000
Number of X Values: 2756
Additional Information: None

 14.051   2.3896
 14.013   2.4514
 13.975   2.4926
 13.938   2.2866
 13.900   2.4514
 13.863   2.3690
 13.826   2.3896
 13.790   2.2866
 13.753   2.2248
 13.717   2.2454
 13.680   2.3175
 13.644   2.3072
 13.609   2.4514
 13.573   2.3381
 13.538   2.2557
 13.502   2.2763
 13.467   2.4102
 13.432   2.4411
 13.398   2.5647
 13.363   2.5544
 13.329   2.6059
 13.295   2.6368
 13.261   2.6265
 13.227   2.4720
 13.193   2.5544
 13.160   2.5956
 13.126   2.5956
 13.093   2.5544
 13.060   2.6265
 13.027   2.6368
 12.995   2.6574
 12.962   2.6986
 12.930   2.9355
 12.898   2.9149
 12.866   2.8325
 12.834   2.7913
 12.802   2.8325
 12.771   2.7604
 12.739   2.7398
 12.708   2.6986
 12.677   2.8119
 12.646   2.7810
 12.616   2.7707
 12.585   2.7192
 12.554   2.8016
 12.524   2.7707
 12.494   2.7707
 12.464   2.7501
 12.434   2.8222
 12.404   2.8737
 12.375   2.9458
 12.345   2.9664
 12.316   3.1209
 12.287   3.1827
 12.258   3.1621
 12.229   3.0797
 12.200   3.1827
 12.171   3.2445
 12.143   3.3166
 12.115   3.4093
 12.086   3.5020
 12.058   3.4299
 12.030   3.4814
 12.002   3.5123
 11.975   3.6462
 11.947   3.7286
 11.920   3.8110
 11.892   3.7801
 11.865   3.8419
 11.838   3.8934
 11.811   3.9758
 11.784   3.9861
 11.757   4.0685
 11.731   4.0891
 11.704   4.0479
 11.678   3.9964
 11.652   4.1509
 11.626   4.2230
 11.600   4.2642
 11.574   4.3157
 11.548   4.4702
 11.522   4.4805
 11.497   4.5938
 11.471   4.7277
 11.446   4.9543
 11.421   5.0367
 11.396   5.0985
 11.371   5.0161
 11.346   4.9337
 11.321   4.8101
 11.297   4.8410
 11.272   4.8307
 11.248   4.8822
 11.223   4.9131
 11.199   4.9028
 11.175   4.9337
 11.151   4.9543
 11.127   5.0058
 11.103   5.1500
 11.079   5.1603
 11.056   5.1912
 11.032   5.2427
 11.009   5.2839
 10.985   5.2736
 10.962   5.3148
 10.939   5.3560
 10.916   5.3354
 10.893   5.1912
 10.870   5.1706
 10.848   5.2221
 10.825   5.2324
 10.802   5.1294
 10.780   5.2015
 10.758   5.2839
 10.735   5.3560
 10.713   5.3457
 10.691   5.3766
 10.669   5.4178
 10.647   5.5105
 10.625   5.5414
 10.604   5.5723
 10.582   5.6135
 10.560   5.7680
 10.539   5.7886
 10.518   5.9122
 10.496   6.0358
 10.475   6.1388
 10.454   6.2727
 10.433   6.4890
 10.412   6.6229
 10.391   6.7362
 10.370   6.9113
 10.350   7.0658
 10.329   7.1482
 10.309   7.3233
 10.288   7.4572
 10.268   7.6632
 10.247   7.8074
 10.227   8.0340
 10.207   8.1267
 10.187   8.3430
 10.167   8.5902
 10.147   8.7859
 10.127   8.9301
 10.108   9.1773
 10.088   9.2700
 10.068   9.4142
 10.049   9.5584
 10.029   9.7335
 10.010   9.9395
  9.991  10.2073
  9.972  10.4236
  9.952  10.5781
  9.933  10.7326
  9.914  10.9695
  9.895  11.0828
  9.877  11.2579
  9.858  11.4536
  9.839  11.5772
  9.821  11.6184
  9.802  11.8347
  9.783  11.9583
  9.765  12.0922
  9.747  12.2467
  9.728  12.3806
  9.710  12.5042
  9.692  12.6175
  9.674  12.7514
  9.656  12.9677
  9.638  13.0810
  9.620  13.0501
  9.602  13.0501
  9.585  13.1737
  9.567  13.1840
  9.549  13.0913
  9.532  13.0192
  9.514  13.0398
  9.497  12.9265
  9.479  12.8441
  9.462  12.7205
  9.445  12.6587
  9.428  12.5248
  9.411  12.3703
  9.394  12.1952
  9.377  12.1025
  9.360  11.8862
  9.343  11.7214
  9.326  11.6390
  9.309  11.5978
  9.293  11.4742
  9.276  11.4433
  9.259  11.4021
  9.243  11.4536
  9.226  11.3815
  9.210  11.3197
  9.194  11.2785
  9.178  11.2785
  9.161  11.2888
  9.145  11.2888
  9.129  11.1652
  9.113  11.1549
  9.097  11.1961
  9.081  11.1858
  9.065  11.1858
  9.049  11.2785
  9.034  11.1961
  9.018  11.0519
  9.002  10.9901
  8.987  10.9798
  8.971  10.8253
  8.956  10.7017
  8.940  10.6502
  8.925  10.6296
  8.909  10.5163
  8.894  10.4648
  8.879  10.3309
  8.864  10.1455
  8.849   9.9395
  8.834   9.8365
  8.819   9.7232
  8.804   9.6202
  8.789   9.4245
  8.774   9.2803
  8.759   9.1464
  8.744   9.0125
  8.730   8.7653
  8.715   8.6314
  8.700   8.4975
  8.686   8.3121
  8.671   8.0237
  8.657   7.9001
  8.642   7.7250
  8.628   7.4572
  8.614   7.2409
  8.599   7.1585
  8.585   6.9628
  8.571   6.8289
  8.557   6.6023
  8.543   6.4272
  8.529   6.3345
  8.515   6.2109
  8.501   6.0152
  8.487   5.8401
  8.473   5.6238
  8.459   5.4178
  8.445   5.1912
  8.431   5.0161
  8.418   4.8204
  8.404   4.5526
  8.391   4.2539
  8.377   4.1097
  8.363   4.1097
  8.350   4.1200
  8.337   4.0582
  8.323   4.0685
  8.310   4.0376
  8.297   3.9655
  8.283   3.8831
  8.270   3.8831
  8.257   3.8934
  8.244   3.8316
  8.231   3.7492
  8.218   3.7904
  8.205   3.8213
  8.192   3.7904
  8.179   3.6977
  8.166   3.6874
  8.153   3.6256
  8.140   3.5947
  8.128   3.5020
  8.115   3.4402
  8.102   3.3887
  8.090   3.3166
  8.077   3.2136
  8.064   3.1312
  8.052   3.1518
  8.039   3.2136
  8.027   3.2033
  8.015   3.2548
  8.002   3.3578
  7.990   3.4093
  7.978   3.3990
  7.965   3.4093
  7.953   3.4299
  7.941   3.4196
  7.929   3.4711
  7.917   3.5535
  7.905   3.5844
  7.893   3.6256
  7.881   3.6359
  7.869   3.6153
  7.857   3.5844
  7.845   3.5638
  7.833   3.5123
  7.821   3.5329
  7.809   3.4917
  7.798   3.5020
  7.786   3.5123
  7.774   3.4917
  7.763   3.4711
  7.751   3.4814
  7.739   3.4711
  7.728   3.4711
  7.716   3.4093
  7.705   3.3578
  7.694   3.3166
  7.682   3.2960
  7.671   3.2445
  7.659   3.2857
  7.648   3.2857
  7.637   3.2136
  7.626   3.1724
  7.614   3.1724
  7.603   3.1003
  7.592   3.1312
  7.581   3.1415
  7.570   3.1930
  7.559   3.1827
  7.548   3.2136
  7.537   3.1827
  7.526   3.1415
  7.515   3.1312
  7.504   3.1518
  7.493   3.1003
  7.483   3.1003
  7.472   3.0797
  7.461   3.1106
  7.450   3.1106
  7.440   3.1518
  7.429   3.1621
  7.418   3.1724
  7.408   3.1106
  7.397   3.1003
  7.387   3.1312
  7.376   3.1724
  7.366   3.1621
  7.355   3.1003
  7.345   3.0385
  7.334   3.0900
  7.324   3.1415
  7.314   3.1312
  7.303   3.1312
  7.293   3.1209
  7.283   3.0694
  7.273   3.0591
  7.263   3.0488
  7.252   3.0797
  7.242   3.0797
  7.232   3.1312
  7.222   3.1106
  7.212   3.1106
  7.202   3.0179
  7.192   3.0179
  7.182   3.0591
  7.172   3.0797
  7.162   3.0591
  7.152   3.0488
  7.143   3.0694
  7.133   3.0694
  7.123   3.0797
  7.113   3.1003
  7.103   3.1003
  7.094   3.1209
  7.084   3.1209
  7.074   3.1003
  7.065   3.0488
  7.055   2.9870
  7.046   2.9767
  7.036   3.0900
  7.026   3.0076
  7.017   2.9149
  7.007   2.8531
  6.998   2.8119
  6.989   2.8016
  6.979   2.8325
  6.970   2.8016
  6.960   2.7810
  6.951   2.7810
  6.942   2.8222
  6.932   2.8119
  6.923   2.7913
  6.914   2.7398
  6.905   2.7295
  6.896   2.7295
  6.886   2.7501
  6.877   2.7089
  6.868   2.7192
  6.859   2.8531
  6.850   2.8840
  6.841   2.7810
  6.832   2.7501
  6.823   2.7398
  6.814   2.8016
  6.805   2.7810
  6.796   2.8325
  6.787   2.8428
  6.778   2.8428
  6.770   2.8325
  6.761   2.8634
  6.752   2.8119
  6.743   2.8016
  6.734   2.8943
  6.726   2.9355
  6.717   2.8840
  6.708   2.9046
  6.700   2.9046
  6.691   2.8531
  6.682   2.8840
  6.674   2.9870
  6.665   2.9458
  6.657   2.9458
  6.648   2.9561
  6.640   2.9355
  6.631   2.9458
  6.623   2.9767
  6.614   2.9355
  6.606   2.9767
  6.597   3.0488
  6.589   3.1415
  6.581   3.1312
  6.572   3.1003
  6.564   3.1312
  6.556   3.1621
  6.547   3.1621
  6.539   3.1312
  6.531   3.1106
  6.523   3.1106
  6.514   3.1518
  6.506   3.1930
  6.498   3.2033
  6.490   3.3063
  6.482   3.3372
  6.474   3.3784
  6.466   3.4402
  6.458   3.4711
  6.450   3.4608
  6.442   3.4917
  6.434   3.5226
  6.426   3.5432
  6.418   3.5741
  6.410   3.5535
  6.402   3.4814
  6.394   3.4402
  6.386   3.3784
  6.378   3.3784
  6.370   3.3887
  6.363   3.3784
  6.355   3.3269
  6.347   3.2960
  6.339   3.2754
  6.332   3.2136
  6.324   3.0900
  6.316   3.0385
  6.308   3.0488
  6.301   3.0385
  6.293   2.9767
  6.286   2.9355
  6.278   2.8943
  6.270   2.8840
  6.263   2.8119
  6.255   2.8222
  6.248   2.8119
  6.240   2.8016
  6.233   2.7604
  6.225   2.7295
  6.218   2.7192
  6.210   2.6471
  6.203   2.5956
  6.195   2.5956
  6.188   2.5338
  6.181   2.5338
  6.173   2.5338
  6.166   2.5132
  6.159   2.5132
  6.151   2.4514
  6.144   2.3896
  6.137   2.4102
  6.130   2.4514
  6.122   2.4926
  6.115   2.4411
  6.108   2.4205
  6.101   2.4823
  6.094   2.5029
  6.086   2.4514
  6.079   2.4617
  6.072   2.4926
  6.065   2.5029
  6.058   2.4926
  6.051   2.5647
  6.044   2.6471
  6.037   2.6162
  6.030   2.6162
  6.023   2.6986
  6.016   2.7192
  6.009   2.7604
  6.002   2.7707
  5.995   2.8016
  5.988   2.8428
  5.981   2.8737
  5.974   2.8840
  5.967   2.9767
  5.960   3.0797
  5.954   3.1518
  5.947   3.1312
  5.940   3.1930
  5.933   3.2754
  5.926   3.3269
  5.920   3.3784
  5.913   3.4299
  5.906   3.4299
  5.899   3.4196
  5.893   3.4814
  5.886   3.5329
  5.879   3.5638
  5.873   3.6256
  5.866   3.6565
  5.859   3.6771
  5.853   3.6771
  5.846   3.6977
  5.840   3.6668
  5.833   3.6874
  5.827   3.6977
  5.820   3.6977
  5.813   3.6977
  5.807   3.6874
  5.800   3.6565
  5.794   3.6977
  5.788   3.7080
  5.781   3.6462
  5.775   3.5844
  5.768   3.6359
  5.762   3.6874
  5.755   3.6565
  5.749   3.6153
  5.743   3.5844
  5.736   3.5432
  5.730   3.5947
  5.724   3.6256
  5.717   3.6256
  5.711   3.6359
  5.705   3.6153
  5.698   3.6050
  5.692   3.6050
  5.686   3.5741
  5.680   3.5741
  5.674   3.5741
  5.667   3.6050
  5.661   3.6050
  5.655   3.5947
  5.649   3.6256
  5.643   3.6359
  5.637   3.5638
  5.630   3.5741
  5.624   3.6153
  5.618   3.6668
  5.612   3.6874
  5.606   3.6668
  5.600   3.6359
  5.594   3.6462
  5.588   3.6771
  5.582   3.6771
  5.576   3.6256
  5.570   3.6256
  5.564   3.6874
  5.558   3.7389
  5.552   3.7698
  5.546   3.8213
  5.540   3.8213
  5.534   3.9140
  5.528   3.9861
  5.523   3.9964
  5.517   4.0685
  5.511   4.1406
  5.505   4.1612
  5.499   4.2127
  5.493   4.2436
  5.487   4.2436
  5.482   4.2539
  5.476   4.3466
  5.470   4.3569
  5.464   4.3775
  5.459   4.4702
  5.453   4.5011
  5.447   4.4599
  5.441   4.4908
  5.436   4.5011
  5.430   4.5011
  5.424   4.5320
  5.419   4.5423
  5.413   4.5217
  5.407   4.5011
  5.402   4.4393
  5.396   4.3981
  5.390   4.3054
  5.385   4.2333
  5.379   4.2333
  5.374   4.1715
  5.368   4.0273
  5.363   3.9552
  5.357   3.8625
  5.352   3.8007
  5.346   3.7389
  5.341   3.7389
  5.335   3.7595
  5.330   3.8007
  5.324   3.7595
  5.319   3.7389
  5.313   3.7904
  5.308   3.8110
  5.302   3.8316
  5.297   3.9243
  5.291   3.9758
  5.286   4.0273
  5.281   4.1200
  5.275   4.2333
  5.270   4.3363
  5.265   4.3878
  5.259   4.4599
  5.254   4.6041
  5.249   4.7483
  5.243   4.8925
  5.238   5.0470
  5.233   5.2221
  5.227   5.3354
  5.222   5.5002
  5.217   5.6753
  5.212   5.8607
  5.206   5.9946
  5.201   6.1079
  5.196   6.2109
  5.191   6.3036
  5.186   6.4169
  5.180   6.5405
  5.175   6.6229
  5.170   6.6847
  5.165   6.7568
  5.160   6.8804
  5.155   6.9731
  5.150   6.9937
  5.145   7.0349
  5.139   7.0967
  5.134   7.1173
  5.129   7.1379
  5.124   7.1791
  5.119   7.1997
  5.114   7.1791
  5.109   7.1997
  5.104   7.2409
  5.099   7.2512
  5.094   7.2512
  5.089   7.2306
  5.084   7.2100
  5.079   7.1997
  5.074   7.1585
  5.069   7.1173
  5.064   7.0452
  5.059   6.9731
  5.054   6.9525
  5.049   6.9628
  5.044   6.9525
  5.040   6.9010
  5.035   6.9113
  5.030   6.9422
  5.025   6.9422
  5.020   6.9422
  5.015   6.9834
  5.010   7.0246
  5.005   7.0040
  5.001   7.0555
  4.996   7.0864
  4.991   7.0864
  4.986   7.1379
  4.981   7.1379
  4.977   7.1070
  4.972   7.1688
  4.967   7.2306
  4.962   7.2924
  4.958   7.3439
  4.953   7.3851
  4.948   7.4675
  4.943   7.5808
  4.939   7.7559
  4.934   7.9516
  4.929   8.1061
  4.925   8.3018
  4.920   8.5593
  4.915   8.7962
  4.911   9.0022
  4.906   9.2391
  4.901   9.4554
  4.897   9.6305
  4.892   9.8571
  4.888  10.0837
  4.883  10.2794
  4.878  10.4545
  4.874  10.6605
  4.869  10.8459
  4.865  11.0107
  4.860  11.1034
  4.856  11.2064
  4.851  11.3712
  4.846  11.4433
  4.842  11.5360
  4.837  11.6699
  4.833  11.8141
  4.828  11.9480
  4.824  11.9789
  4.819  11.9789
  4.815  12.1025
  4.810  12.2570
  4.806  12.3600
  4.802  12.4733
  4.797  12.5248
  4.793  12.5660
  4.788  12.5969
  4.784  12.6381
  4.779  12.6896
  4.775  12.7514
  4.771  12.8132
  4.766  12.8647
  4.762  12.8750
  4.758  12.9059
  4.753  12.9265
  4.749  12.9265
  4.744  12.9883
  4.740  13.0089
  4.736  13.0501
  4.731  13.0810
  4.727  13.0810
  4.723  13.1222
  4.719  13.1840
  4.714  13.2252
  4.710  13.2149
  4.706  13.2252
  4.701  13.2561
  4.697  13.3694
  4.693  13.4209
  4.689  13.3797
  4.684  13.3900
  4.680  13.4518
  4.676  13.4312
  4.672  13.4209
  4.668  13.4312
  4.663  13.4209
  4.659  13.4415
  4.655  13.4930
  4.651  13.5754
  4.647  13.5342
  4.643  13.4724
  4.638  13.5445
  4.634  13.6372
  4.630  13.7196
  4.626  13.7814
  4.622  13.8844
  4.618  13.9771
  4.614  14.0183
  4.610  14.1419
  4.605  14.2346
  4.601  14.2140
  4.597  14.3067
  4.593  14.4715
  4.589  14.5436
  4.585  14.6260
  4.581  14.6981
  4.577  14.7290
  4.573  14.7393
  4.569  14.7908
  4.565  14.8732
  4.561  14.9762
  4.557  15.1101
  4.553  15.1410
  4.549  15.2131
  4.545  15.3058
  4.541  15.3470
  4.537  15.3985
  4.533  15.4603
  4.529  15.5118
  4.525  15.5427
  4.521  15.6354
  4.517  15.7384
  4.513  15.7590
  4.509  15.8105
  4.505  15.9444
  4.502  16.0165
  4.498  16.0680
  4.494  16.0989
  4.490  16.1092
  4.486  16.1607
  4.482  16.2019
  4.478  16.2843
  4.474  16.3667
  4.470  16.3667
  4.467  16.3461
  4.463  16.4697
  4.459  16.5315
  4.455  16.5315
  4.451  16.5006
  4.447  16.5006
  4.444  16.5006
  4.440  16.5212
  4.436  16.5727
  4.432  16.5624
  4.428  16.5212
  4.425  16.5212
  4.421  16.5727
  4.417  16.6345
  4.413  16.6654
  4.410  16.6551
  4.406  16.6963
  4.402  16.6963
  4.398  16.7066
  4.395  16.8302
  4.391  16.9229
  4.387  16.9847
  4.384  17.0465
  4.380  17.1495
  4.376  17.3040
  4.372  17.3864
  4.369  17.4276
  4.365  17.4894
  4.361  17.5718
  4.358  17.7778
  4.354  17.9735
  4.350  18.0662
  4.347  18.0765
  4.343  18.1383
  4.340  18.2619
  4.336  18.3752
  4.332  18.4782
  4.329  18.6121
  4.325  18.6533
  4.321  18.6945
  4.318  18.7872
  4.314  18.9417
  4.311  19.0962
  4.307  19.1683
  4.304  19.2198
  4.300  19.3228
  4.296  19.4361
  4.293  19.5906
  4.289  19.6730
  4.286  19.6627
  4.282  19.7039
  4.279  19.8069
  4.275  19.9305
  4.272  20.0026
  4.268  19.9511
  4.265  19.9820
  4.261  20.0541
  4.258  20.0747
  4.254  20.0747
  4.251  20.1365
  4.247  20.2189
  4.244  20.2807
  4.240  20.3631
  4.237  20.4352
  4.233  20.5279
  4.230  20.5897
  4.226  20.5176
  4.223  20.5176
  4.219  20.4352
  4.216  20.4661
  4.213  20.5382
  4.209  20.5176
  4.206  20.4455
  4.202  20.4146
  4.199  20.4043
  4.196  20.4352
  4.192  20.4558
  4.189  20.5073
  4.185  20.5176
  4.182  20.5588
  4.179  20.5794
  4.175  20.5588
  4.172  20.6309
  4.169  20.6927
  4.165  20.6515
  4.162  20.6721
  4.159  20.6515
  4.155  20.6103
  4.152  20.7030
  4.149  20.8163
  4.145  20.7442
  4.142  20.7442
  4.139  20.8266
  4.135  20.8575
  4.132  20.8472
  4.129  20.8678
  4.126  20.8678
  4.122  20.8987
  4.119  20.9605
  4.116  21.0017
  4.112  21.0326
  4.109  20.9708
  4.106  20.9502
  4.103  20.9708
  4.099  20.9811
  4.096  20.9708
  4.093  20.9811
  4.090  21.0326
  4.086  20.9605
  4.083  20.9708
  4.080  21.0326
  4.077  21.0532
  4.074  21.0120
  4.070  21.0429
  4.067  21.0429
  4.064  21.0429
  4.061  20.9605
  4.058  20.8884
  4.055  20.8987
  4.051  20.8884
  4.048  20.7957
  4.045  20.7854
  4.042  20.7854
  4.039  20.7545
  4.036  20.6824
  4.032  20.6206
  4.029  20.5588
  4.026  20.4146
  4.023  20.2910
  4.020  20.1777
  4.017  20.0850
  4.014  19.9511
  4.011  19.7451
  4.008  19.5906
  4.004  19.4258
  4.001  19.2919
  3.998  19.2198
  3.995  18.9726
  3.992  18.7151
  3.989  18.6533
  3.986  18.5915
  3.983  18.4679
  3.980  18.3855
  3.977  18.4267
  3.974  18.4988
  3.971  18.4988
  3.968  18.4782
  3.965  18.5709
  3.962  18.6430
  3.959  18.6327
  3.956  18.6430
  3.953  18.8078
  3.950  19.0550
  3.947  19.2301
  3.944  19.3846
  3.941  19.5700
  3.938  19.6524
  3.935  19.6833
  3.932  19.7348
  3.929  19.8275
  3.926  19.9511
  3.923  20.0026
  3.920  19.9923
  3.917  19.9614
  3.914  19.9614
  3.911  19.9820
  3.908  19.9408
  3.905  19.9202
  3.902  19.9717
  3.899  19.9923
  3.896  20.0335
  3.893  20.1674
  3.890  20.1571
  3.887  20.1056
  3.884  20.0129
  3.882  20.0026
  3.879  20.0026
  3.876  19.9717
  3.873  20.0541
  3.870  20.1262
  3.867  20.0953
  3.864  20.0953
  3.861  20.0541
  3.858  20.0232
  3.856  20.0026
  3.853  19.9923
  3.850  20.0026
  3.847  20.0232
  3.844  20.0129
  3.841  20.0335
  3.838  20.0438
  3.836  20.1056
  3.833  20.1365
  3.830  20.0850
  3.827  20.0850
  3.824  20.1571
  3.822  20.1262
  3.819  20.2189
  3.816  20.2910
  3.813  20.3631
  3.810  20.3940
  3.807  20.3322
  3.805  20.2704
  3.802  20.2601
  3.799  20.2189
  3.796  20.3219
  3.794  20.4558
  3.791  20.4352
  3.788  20.3631
  3.785  20.3631
  3.782  20.3322
  3.780  20.3219
  3.777  20.3837
  3.774  20.4249
  3.771  20.3631
  3.769  20.3219
  3.766  20.2910
  3.763  20.2292
  3.761  20.1571
  3.758  20.1880
  3.755  20.1365
  3.752  20.1365
  3.750  20.0850
  3.747  19.9717
  3.744  19.9820
  3.742  20.0129
  3.739  19.9511
  3.736  19.8996
  3.733  19.9820
  3.731  20.0438
  3.728  19.9820
  3.725  19.9202
  3.723  19.8172
  3.720  19.6730
  3.717  19.6936
  3.715  19.7760
  3.712  19.7554
  3.709  19.7142
  3.707  19.6833
  3.704  19.6524
  3.702  19.6112
  3.699  19.5700
  3.696  19.4773
  3.694  19.4567
  3.691  19.5185
  3.688  19.4464
  3.686  19.3125
  3.683  19.3846
  3.680  19.4567
  3.678  19.4361
  3.675  19.3022
  3.673  19.2713
  3.670  19.3125
  3.667  19.2919
  3.665  19.2301
  3.662  19.2198
  3.660  19.1992
  3.657  19.1786
  3.655  19.1065
  3.652  19.1374
  3.649  19.0653
  3.647  19.0138
  3.644  18.9623
  3.642  18.9314
  3.639  18.9417
  3.637  18.8593
  3.634  18.7460
  3.632  18.7254
  3.629  18.7357
  3.626  18.7563
  3.624  18.6636
  3.621  18.5812
  3.619  18.5503
  3.616  18.5400
  3.614  18.4988
  3.611  18.3340
  3.609  18.2722
  3.606  18.3958
  3.604  18.4267
  3.601  18.3443
  3.599  18.2413
  3.596  18.1795
  3.594  18.1589
  3.591  18.2104
  3.589  18.1177
  3.586  18.0456
  3.584  17.9838
  3.581  17.8808
  3.579  17.7778
