Name: Dacite
Type: Rock
Class: Intermediate
Subclass: Felsic
Particle Size: Whole Rock Chips
Sample No.: AP-960-157b
Owner: United States Geological Survey, L. C. Rowan
Wavelength range: 0.405 - 14.05 um
Origin: Iberian Pyrite Belt, Spain

Description: Dacite, chloritic





Measurement: Directional Hemispherical Reflectance
First Column: X
Second Column: Y
X Units: Wavelength (micrometers)
Y Units: Reflectance (percent)
First X Value: 14.05105
Last X Value: 0.40500
Number of X Values: 2530
Additional Information: dac157ba.txt

 14.051   1.7098
 14.013   1.6377
 13.975   1.9261
 13.938   1.9776
 13.900   2.1424
 13.863   2.0394
 13.826   2.0703
 13.790   1.9467
 13.753   1.9158
 13.717   1.9158
 13.680   2.1012
 13.644   2.0806
 13.609   2.0703
 13.573   2.0188
 13.538   2.0703
 13.502   2.0909
 13.467   2.2351
 13.432   2.2454
 13.398   2.2763
 13.363   2.1836
 13.329   2.1939
 13.295   2.1939
 13.261   2.3484
 13.227   2.3175
 13.193   2.3278
 13.160   2.3381
 13.126   2.4102
 13.093   2.3690
 13.060   2.5132
 13.027   2.5338
 12.995   2.4823
 12.962   2.4205
 12.930   2.5029
 12.898   2.5132
 12.866   2.7295
 12.834   2.8428
 12.802   2.9149
 12.771   2.8119
 12.739   2.6677
 12.708   2.5956
 12.677   2.5338
 12.646   2.4308
 12.616   2.5544
 12.585   2.5647
 12.554   2.6162
 12.524   2.6162
 12.494   2.6883
 12.464   2.5853
 12.434   2.5235
 12.404   2.3896
 12.375   2.2763
 12.345   2.0703
 12.316   2.0188
 12.287   1.9982
 12.258   1.9982
 12.229   2.0394
 12.200   2.1424
 12.171   2.1424
 12.143   2.1630
 12.115   2.1836
 12.086   2.3690
 12.058   2.4308
 12.030   2.4102
 12.002   2.3072
 11.975   2.3690
 11.947   2.3587
 11.920   2.4823
 11.892   2.5235
 11.865   2.5029
 11.838   2.4823
 11.811   2.5956
 11.784   2.5956
 11.757   2.7089
 11.731   2.6574
 11.704   2.5853
 11.678   2.6677
 11.652   2.7810
 11.626   2.6677
 11.600   2.6780
 11.574   2.6780
 11.548   2.7501
 11.522   2.8840
 11.497   3.0179
 11.471   2.8737
 11.446   2.8634
 11.421   2.8943
 11.396   2.9767
 11.371   2.9561
 11.346   3.0488
 11.321   3.0797
 11.297   3.0694
 11.272   2.9767
 11.248   2.9870
 11.223   3.0385
 11.199   3.0179
 11.175   2.9870
 11.151   3.0385
 11.127   3.0282
 11.103   3.1415
 11.079   3.1209
 11.056   3.1209
 11.032   3.1518
 11.009   3.2239
 10.985   3.1209
 10.962   3.2033
 10.939   3.3372
 10.916   3.3887
 10.893   3.2754
 10.870   3.2548
 10.848   3.1621
 10.825   3.1415
 10.802   3.1827
 10.780   3.3166
 10.758   3.3681
 10.735   3.3578
 10.713   3.3372
 10.691   3.4505
 10.669   3.4608
 10.647   3.4711
 10.625   3.4814
 10.604   3.5020
 10.582   3.4711
 10.560   3.5329
 10.539   3.5741
 10.518   3.6153
 10.496   3.5947
 10.475   3.6462
 10.454   3.6565
 10.433   3.6668
 10.412   3.6874
 10.391   3.8110
 10.370   3.7698
 10.350   3.7389
 10.329   3.7183
 10.309   3.8007
 10.288   3.8522
 10.268   3.9140
 10.247   3.9552
 10.227   4.0170
 10.207   4.0067
 10.187   4.0479
 10.167   4.0685
 10.147   4.1303
 10.127   4.2024
 10.108   4.2848
 10.088   4.3054
 10.068   4.3775
 10.049   4.4290
 10.029   4.4908
 10.010   4.4084
  9.991   4.4599
  9.972   4.4908
  9.952   4.5526
  9.933   4.5526
  9.914   4.5938
  9.895   4.6144
  9.877   4.6865
  9.858   4.6350
  9.839   4.6144
  9.821   4.5938
  9.802   4.5423
  9.783   4.5526
  9.765   4.7998
  9.747   4.9131
  9.728   4.9440
  9.710   4.9234
  9.692   5.0161
  9.674   5.0779
  9.656   5.1294
  9.638   5.0779
  9.620   5.2015
  9.602   5.2530
  9.585   5.2221
  9.567   5.1809
  9.549   5.1912
  9.532   5.0985
  9.514   5.0882
  9.497   5.0573
  9.479   5.1603
  9.462   5.2221
  9.445   5.2736
  9.428   5.3457
  9.411   5.4796
  9.394   5.6650
  9.377   5.8710
  9.360   5.9328
  9.343   6.1182
  9.326   6.2006
  9.309   6.2624
  9.293   6.2933
  9.276   6.3654
  9.259   6.2315
  9.243   6.0667
  9.226   6.0358
  9.210   6.1594
  9.194   6.0976
  9.178   6.0873
  9.161   6.0873
  9.145   6.0255
  9.129   5.8916
  9.113   5.8298
  9.097   5.7371
  9.081   5.8092
  9.065   5.7680
  9.049   5.6959
  9.034   5.6032
  9.018   5.6032
  9.002   5.5826
  8.987   5.5929
  8.971   5.5105
  8.956   5.5002
  8.940   5.4281
  8.925   5.4075
  8.909   5.3766
  8.894   5.4384
  8.879   5.4899
  8.864   5.5517
  8.849   5.4487
  8.834   5.3457
  8.819   5.3045
  8.804   5.3560
  8.789   5.2942
  8.774   5.2015
  8.759   5.1294
  8.744   5.2015
  8.730   5.1191
  8.715   5.0264
  8.700   4.9440
  8.686   4.8616
  8.671   4.6762
  8.657   4.5320
  8.642   4.3363
  8.628   4.0994
  8.614   3.9861
  8.599   4.1612
  8.585   4.3569
  8.571   4.5835
  8.557   4.7174
  8.543   4.7689
  8.529   4.7483
  8.515   4.8513
  8.501   4.9646
  8.487   4.9955
  8.473   4.9646
  8.459   5.0985
  8.445   5.1397
  8.431   5.1088
  8.418   5.0367
  8.404   5.0985
  8.391   5.1397
  8.377   5.1809
  8.363   5.1500
  8.350   5.1191
  8.337   5.0985
  8.323   5.1603
  8.310   5.0985
  8.297   5.0882
  8.283   5.1397
  8.270   5.2221
  8.257   5.2221
  8.244   5.2633
  8.231   5.2633
  8.218   5.3045
  8.205   5.2530
  8.192   5.1706
  8.179   5.1191
  8.166   5.0367
  8.153   4.8719
  8.140   4.6865
  8.128   4.4908
  8.115   4.3878
  8.102   4.2024
  8.090   3.9861
  8.077   3.8007
  8.064   3.6874
  8.052   3.5123
  8.039   3.4196
  8.027   3.2548
  8.015   3.1518
  8.002   3.0488
  7.990   2.9973
  7.978   2.8737
  7.965   2.7707
  7.953   2.6883
  7.941   2.5956
  7.929   2.5029
  7.917   2.5029
  7.905   2.4102
  7.893   2.3175
  7.881   2.2454
  7.869   2.2557
  7.857   2.1939
  7.845   2.1527
  7.833   2.1424
  7.821   2.1321
  7.809   2.0394
  7.798   1.9982
  7.786   1.9673
  7.774   1.9467
  7.763   1.9879
  7.751   2.0909
  7.739   2.0394
  7.728   1.9570
  7.716   1.8849
  7.705   1.9261
  7.694   1.9467
  7.682   1.9467
  7.671   1.9261
  7.659   1.9158
  7.648   1.8437
  7.637   1.8437
  7.626   1.8128
  7.614   1.7819
  7.603   1.7098
  7.592   1.6995
  7.581   1.7201
  7.570   1.7922
  7.559   1.8025
  7.548   1.8128
  7.537   1.7613
  7.526   1.7613
  7.515   1.8128
  7.504   1.8437
  7.493   1.7716
  7.483   1.7510
  7.472   1.7304
  7.461   1.7613
  7.450   1.6995
  7.440   1.7304
  7.429   1.7510
  7.418   1.6892
  7.408   1.6583
  7.397   1.7201
  7.387   1.6789
  7.376   1.6377
  7.366   1.6377
  7.355   1.6480
  7.345   1.6892
  7.334   1.7407
  7.324   1.6789
  7.314   1.6480
  7.303   1.6583
  7.293   1.6892
  7.283   1.5759
  7.273   1.5244
  7.263   1.5347
  7.252   1.6068
  7.242   1.5965
  7.232   1.5656
  7.222   1.5553
  7.212   1.6068
  7.202   1.6789
  7.192   1.7510
  7.182   1.6892
  7.172   1.6274
  7.162   1.6583
  7.152   1.6995
  7.143   1.6789
  7.133   1.7098
  7.123   1.6789
  7.113   1.6789
  7.103   1.5965
  7.094   1.5965
  7.084   1.5759
  7.074   1.6583
  7.065   1.7613
  7.055   1.8025
  7.046   1.7407
  7.036   1.6789
  7.026   1.5965
  7.017   1.5862
  7.007   1.6068
  6.998   1.6480
  6.989   1.6583
  6.979   1.6583
  6.970   1.6274
  6.960   1.6274
  6.951   1.6480
  6.942   1.6892
  6.932   1.6995
  6.923   1.6892
  6.914   1.6583
  6.905   1.6480
  6.896   1.6377
  6.886   1.6583
  6.877   1.6789
  6.868   1.7201
  6.859   1.6995
  6.850   1.6892
  6.841   1.7201
  6.832   1.7819
  6.823   1.7510
  6.814   1.7407
  6.805   1.6892
  6.796   1.7201
  6.787   1.7510
  6.778   1.8231
  6.770   1.8025
  6.761   1.8334
  6.752   1.8643
  6.743   1.9158
  6.734   1.9055
  6.726   1.9570
  6.717   1.9982
  6.708   2.0085
  6.700   2.0188
  6.691   2.0394
  6.682   1.9879
  6.674   2.0291
  6.665   2.0394
  6.657   2.0703
  6.648   2.0703
  6.640   2.0703
  6.631   2.0703
  6.623   2.0497
  6.614   2.0085
  6.606   2.0497
  6.597   2.0497
  6.589   2.0291
  6.581   1.9982
  6.572   2.0291
  6.564   2.0909
  6.556   2.0806
  6.547   1.9673
  6.539   1.9673
  6.531   1.9467
  6.523   1.9364
  6.514   1.9364
  6.506   1.9570
  6.498   1.9673
  6.490   1.9776
  6.482   1.9673
  6.474   1.9879
  6.466   1.9879
  6.458   2.0085
  6.450   2.0394
  6.442   2.0600
  6.434   2.0600
  6.426   2.0497
  6.418   2.0188
  6.410   2.0291
  6.402   1.9982
  6.394   2.0085
  6.386   2.0497
  6.378   2.0909
  6.370   2.0600
  6.363   2.0188
  6.355   2.0188
  6.347   2.0291
  6.339   2.0085
  6.332   2.0497
  6.324   2.0806
  6.316   2.1012
  6.308   2.0703
  6.301   2.0394
  6.293   2.0291
  6.286   2.0600
  6.278   2.0188
  6.270   2.0188
  6.263   2.0291
  6.255   2.0291
  6.248   1.9879
  6.240   1.9364
  6.233   1.8952
  6.225   1.9158
  6.218   1.9673
  6.210   1.9776
  6.203   1.9055
  6.195   1.8540
  6.188   1.8334
  6.181   1.7819
  6.173   1.6789
  6.166   1.6686
  6.159   1.6995
  6.151   1.7613
  6.144   1.7716
  6.137   1.7510
  6.130   1.6789
  6.122   1.6892
  6.115   1.7098
  6.108   1.7510
  6.101   1.7510
  6.094   1.7510
  6.086   1.7407
  6.079   1.6995
  6.072   1.6686
  6.065   1.7201
  6.058   1.7819
  6.051   1.7922
  6.044   1.7510
  6.037   1.7407
  6.030   1.7510
  6.023   1.7304
  6.016   1.7098
  6.009   1.6789
  6.002   1.6686
  5.995   1.7407
  5.988   1.7510
  5.981   1.7613
  5.974   1.7819
  5.967   1.8231
  5.960   1.8334
  5.954   1.8746
  5.947   1.9261
  5.940   1.9776
  5.933   1.9673
  5.926   1.9570
  5.920   1.9673
  5.913   2.0394
  5.906   2.0188
  5.899   2.0394
  5.893   2.1321
  5.886   2.1939
  5.879   2.2248
  5.873   2.3072
  5.866   2.3690
  5.859   2.3793
  5.853   2.3587
  5.846   2.3999
  5.840   2.4411
  5.833   2.4823
  5.827   2.5132
  5.820   2.5029
  5.813   2.4926
  5.807   2.5338
  5.800   2.5338
  5.794   2.5647
  5.788   2.5956
  5.781   2.6677
  5.775   2.7501
  5.768   2.7707
  5.762   2.8016
  5.755   2.8737
  5.749   2.8943
  5.743   2.9355
  5.736   2.9458
  5.730   2.9973
  5.724   3.1106
  5.717   3.2548
  5.711   3.3269
  5.705   3.3990
  5.698   3.5226
  5.692   3.6462
  5.686   3.7492
  5.680   3.9037
  5.674   4.0376
  5.667   4.0891
  5.661   4.1303
  5.655   4.2333
  5.649   4.3260
  5.643   4.3878
  5.637   4.4496
  5.630   4.5217
  5.624   4.5526
  5.618   4.6041
  5.612   4.6453
  5.606   4.6865
  5.600   4.7689
  5.594   4.8410
  5.588   4.8307
  5.582   4.8204
  5.576   4.8822
  5.570   5.0367
  5.564   5.1294
  5.558   5.2015
  5.552   5.2839
  5.546   5.3457
  5.540   5.4075
  5.534   5.4796
  5.528   5.5311
  5.523   5.5723
  5.517   5.6238
  5.511   5.6753
  5.505   5.7680
  5.499   5.8504
  5.493   5.8813
  5.487   5.9328
  5.482   6.0049
  5.476   6.1285
  5.470   6.1903
  5.464   6.1800
  5.459   6.1491
  5.453   6.2109
  5.447   6.2933
  5.441   6.3345
  5.436   6.3139
  5.430   6.3345
  5.424   6.3654
  5.419   6.3551
  5.413   6.3139
  5.407   6.2933
  5.402   6.3036
  5.396   6.3139
  5.390   6.2521
  5.385   6.2109
  5.379   6.1903
  5.374   6.1388
  5.368   6.1594
  5.363   6.1800
  5.357   6.1491
  5.352   6.1491
  5.346   6.1594
  5.341   6.1903
  5.335   6.2315
  5.330   6.2727
  5.324   6.2521
  5.319   6.2212
  5.313   6.2212
  5.308   6.2624
  5.302   6.2933
  5.297   6.3242
  5.291   6.3036
  5.286   6.3036
  5.281   6.3551
  5.275   6.4272
  5.270   6.4478
  5.265   6.4890
  5.259   6.4890
  5.254   6.5405
  5.249   6.5920
  5.243   6.6126
  5.238   6.6435
  5.233   6.7259
  5.227   6.8186
  5.222   6.9319
  5.217   6.9525
  5.212   6.9319
  5.206   6.9628
  5.201   6.9628
  5.196   6.9525
  5.191   6.9319
  5.186   6.9010
  5.180   6.9422
  5.175   7.0143
  5.170   7.0246
  5.165   7.0040
  5.160   6.9937
  5.155   6.9937
  5.150   6.9731
  5.145   6.9628
  5.139   6.9834
  5.134   6.9937
  5.129   6.9731
  5.124   6.9113
  5.119   6.8907
  5.114   6.9010
  5.109   6.9113
  5.104   6.9216
  5.099   6.9628
  5.094   6.9731
  5.089   6.9422
  5.084   6.9010
  5.079   6.9525
  5.074   6.9422
  5.069   6.8907
  5.064   6.8907
  5.059   6.9422
  5.054   6.9113
  5.049   6.8186
  5.044   6.8083
  5.040   6.9216
  5.035   6.9525
  5.030   6.9216
  5.025   6.8701
  5.020   6.8701
  5.015   6.9010
  5.010   6.9216
  5.005   6.9422
  5.001   6.9216
  4.996   6.8907
  4.991   6.9422
  4.986   6.9731
  4.981   6.9937
  4.977   6.9731
  4.972   6.9937
  4.967   7.0452
  4.962   7.0658
  4.958   7.0864
  4.953   7.1482
  4.948   7.1585
  4.943   7.1482
  4.939   7.1688
  4.934   7.1894
  4.929   7.2203
  4.925   7.2203
  4.920   7.1997
  4.915   7.2203
  4.911   7.2306
  4.906   7.2821
  4.901   7.3851
  4.897   7.4675
  4.892   7.4984
  4.888   7.5396
  4.883   7.5705
  4.878   7.6323
  4.874   7.7250
  4.869   7.7250
  4.865   7.7250
  4.860   7.7868
  4.856   7.8280
  4.851   7.8280
  4.846   7.7971
  4.842   7.8486
  4.837   7.9619
  4.833   8.0237
  4.828   7.9928
  4.824   8.0031
  4.819   8.1164
  4.815   8.1679
  4.810   8.1370
  4.806   8.1370
  4.802   8.1370
  4.797   8.1576
  4.793   8.1988
  4.788   8.1885
  4.784   8.2194
  4.779   8.2297
  4.775   8.2091
  4.771   8.2606
  4.766   8.3018
  4.762   8.3018
  4.758   8.2812
  4.753   8.2812
  4.749   8.4151
  4.744   8.5284
  4.740   8.5799
  4.736   8.5799
  4.731   8.5696
  4.727   8.5696
  4.723   8.5902
  4.719   8.5902
  4.714   8.5593
  4.710   8.5181
  4.706   8.5387
  4.701   8.6211
  4.697   8.6314
  4.693   8.5902
  4.689   8.6005
  4.684   8.5902
  4.680   8.5799
  4.676   8.5902
  4.672   8.6417
  4.668   8.6623
  4.663   8.6932
  4.659   8.7550
  4.655   8.7962
  4.651   8.8168
  4.647   8.8786
  4.643   8.9198
  4.638   8.9301
  4.634   8.9713
  4.630   9.0537
  4.626   9.0640
  4.622   9.0949
  4.618   9.1052
  4.614   9.1155
  4.610   9.1670
  4.605   9.1567
  4.601   9.1464
  4.597   9.1773
  4.593   9.3009
  4.589   9.3524
  4.585   9.3627
  4.581   9.4348
  4.577   9.4760
  4.573   9.4554
  4.569   9.4451
  4.565   9.5069
  4.561   9.5275
  4.557   9.4554
  4.553   9.4451
  4.549   9.5069
  4.545   9.5275
  4.541   9.5275
  4.537   9.5275
  4.533   9.5687
  4.529   9.6099
  4.525   9.6408
  4.521   9.5996
  4.517   9.5378
  4.513   9.5069
  4.509   9.5378
  4.505   9.5069
  4.502   9.4966
  4.498   9.5172
  4.494   9.5069
  4.490   9.5069
  4.486   9.4966
  4.482   9.4657
  4.478   9.4348
  4.474   9.4554
  4.470   9.4966
  4.467   9.4863
  4.463   9.5275
  4.459   9.5481
  4.455   9.5790
  4.451   9.6408
  4.447   9.7129
  4.444   9.8159
  4.440   9.8674
  4.436   9.8983
  4.432   9.8468
  4.428   9.8365
  4.425   9.9395
  4.421  10.0631
  4.417  10.0837
  4.413  10.0631
  4.410  10.1146
  4.406  10.2073
  4.402  10.3103
  4.398  10.4030
  4.395  10.4339
  4.391  10.4442
  4.387  10.4648
  4.384  10.4854
  4.380  10.4957
  4.376  10.5266
  4.372  10.6399
  4.369  10.7017
  4.365  10.7017
  4.361  10.7326
  4.358  10.7841
  4.354  10.8047
  4.350  10.8150
  4.347  10.7841
  4.343  10.7738
  4.340  10.7738
  4.336  10.8356
  4.332  10.9180
  4.329  10.9180
  4.325  10.8871
  4.321  10.8665
  4.318  10.8562
  4.314  10.8665
  4.311  10.8871
  4.307  10.9180
  4.304  10.8871
  4.300  10.8974
  4.296  10.8562
  4.293  10.8665
  4.289  10.9077
  4.286  10.8768
  4.282  10.8871
  4.279  10.8665
  4.275  10.8974
  4.272  10.9695
  4.268  10.9283
  4.265  10.8974
  4.261  10.8768
  4.258  10.8665
  4.254  10.8665
  4.251  10.8974
  4.247  10.9180
  4.244  10.8768
  4.240  10.8356
  4.237  10.9695
  4.233  11.0416
  4.230  10.9901
  4.226  10.9180
  4.223  10.8562
  4.219  10.7841
  4.216  10.7429
  4.213  10.6296
  4.209  10.6811
  4.206  10.7120
  4.202  10.6193
  4.199  10.6193
  4.196  10.6399
  4.192  10.6605
  4.189  10.7120
  4.185  10.6811
  4.182  10.5678
  4.179  10.4854
  4.175  10.5575
  4.172  10.6296
  4.169  10.5884
  4.165  10.5163
  4.162  10.5369
  4.159  10.5060
  4.155  10.4854
  4.152  10.4854
  4.149  10.4339
  4.145  10.4030
  4.142  10.3721
  4.139  10.3824
  4.135  10.4442
  4.132  10.3824
  4.129  10.3412
  4.126  10.3206
  4.122  10.2897
  4.119  10.2382
  4.116  10.2588
  4.112  10.3000
  4.109  10.2176
  4.106  10.1146
  4.103  10.1043
  4.099  10.1249
  4.096  10.1249
  4.093  10.0940
  4.090  10.1249
  4.086  10.0528
  4.083   9.9910
  4.080   9.9601
  4.077   9.8983
  4.074   9.8880
  4.070   9.9086
  4.067   9.8880
  4.064   9.9086
  4.061   9.9704
  4.058   9.8880
  4.055   9.8365
  4.051   9.7541
  4.048   9.6717
  4.045   9.6717
  4.042   9.6099
  4.039   9.6511
  4.036   9.7335
  4.032   9.6511
  4.029   9.5584
  4.026   9.5584
  4.023   9.5481
  4.020   9.5481
  4.017   9.5481
  4.014   9.5069
  4.011   9.4451
  4.008   9.4142
  4.004   9.3112
  4.001   9.3524
  3.998   9.3318
  3.995   9.3318
  3.992   9.3833
  3.989   9.4039
  3.986   9.3627
  3.983   9.2700
  3.980   9.3112
  3.977   9.3730
  3.974   9.2700
  3.971   9.2082
  3.968   9.1361
  3.965   9.1876
  3.962   9.2803
  3.959   9.2494
  3.956   9.1258
  3.953   9.0949
  3.950   9.1155
  3.947   9.1773
  3.944   9.2288
  3.941   9.1876
  3.938   9.0846
  3.935   9.0949
  3.932   9.0434
  3.929   9.0743
  3.926   9.1464
  3.923   9.1670
  3.920   9.0949
  3.917   8.9507
  3.914   8.9095
  3.911   9.0434
  3.908   9.0846
  3.905   9.0743
  3.902   9.0228
  3.899   8.9404
  3.896   8.8683
  3.893   8.8683
  3.890   8.8477
  3.887   8.8168
  3.884   8.8065
  3.882   8.8065
  3.879   8.7962
  3.876   8.8168
  3.873   8.8168
  3.870   8.7962
  3.867   8.7653
  3.864   8.7447
  3.861   8.6829
  3.858   8.6520
  3.856   8.6211
  3.853   8.5902
  3.850   8.5490
  3.847   8.5284
  3.844   8.4357
  3.841   8.4254
  3.838   8.4563
  3.836   8.4563
  3.833   8.3842
  3.830   8.3636
  3.827   8.3842
  3.824   8.3533
  3.822   8.3327
  3.819   8.2709
  3.816   8.1679
  3.813   8.2091
  3.810   8.1473
  3.807   8.0546
  3.805   7.9619
  3.802   7.9825
  3.799   8.0340
  3.796   8.0752
  3.794   8.0546
  3.791   7.9928
  3.788   7.9207
  3.785   7.9001
  3.782   7.8486
  3.780   7.7765
  3.777   7.7456
  3.774   7.8177
  3.771   7.8074
  3.769   7.7559
  3.766   7.6426
  3.763   7.5602
  3.761   7.4881
  3.758   7.5190
  3.755   7.5602
  3.752   7.5911
  3.750   7.5293
  3.747   7.5190
  3.744   7.5396
  3.742   7.4778
  3.739   7.3027
  3.736   7.2718
  3.733   7.2718
  3.731   7.3027
  3.728   7.2924
  3.725   7.2615
  3.723   7.1379
  3.720   7.1173
  3.717   7.0864
  3.715   7.2409
  3.712   7.2100
  3.709   7.0452
  3.707   7.0349
  3.704   7.0864
  3.702   7.0040
  3.699   6.9422
  3.696   6.9319
  3.694   6.9834
  3.691   7.0452
  3.688   7.0143
  3.686   6.8495
  3.683   6.7362
  3.680   6.8083
  3.678   6.8392
  3.675   6.7259
  3.673   6.7053
  3.670   6.8083
  3.667   6.8186
  3.665   6.7156
  3.662   6.6538
  3.660   6.4684
  3.657   6.4581
  3.655   6.4684
  3.652   6.4993
  3.649   6.5920
  3.647   6.6126
  3.644   6.4581
  3.642   6.3860
  3.639   6.4066
  3.637   6.3757
  3.634   6.3345
  3.632   6.3551
  3.629   6.3860
  3.626   6.3448
  3.624   6.2418
  3.621   6.3139
  3.619   6.3139
  3.616   6.2933
  3.614   6.2624
  3.611   6.2006
  3.609   6.0873
  3.606   6.0667
  3.604   6.0461
  3.601   6.1182
  3.599   6.0976
  3.596   6.0461
  3.594   5.8916
  3.591   5.8504
  3.589   5.9431
  3.586   6.0667
  3.584   5.9534
  3.581   5.8607
