Name: Bloedite Na2Mg(So4)2 * 3H2O
Type: Mineral
Class: Sulfate
Subclass: None
Particle Size: Unsieved coarse powder
Sample No.: GDS147
Owner: USGS
Wavelength range: 0.40 - 14.05 um
Origin: Soda Lake, California

Description: Bloedite powder from Soda Lake, California





Measurement: Directional Hemispherical Reflectance
First Column: X
Second Column: Y
X Units: Wavelength (micrometers)
Y Units: Reflectance (percent)
First X Value: 14.05105
Last X Value: 0.40000
Number of X Values: 2756
Additional Information: None

 14.051   1.9055
 14.013   1.8334
 13.975   1.8231
 13.938   1.8231
 13.900   1.8746
 13.863   1.6686
 13.826   1.7613
 13.790   1.7304
 13.753   1.8025
 13.717   1.7510
 13.680   1.7510
 13.644   1.6274
 13.609   1.6583
 13.573   1.6377
 13.538   1.6995
 13.502   1.7098
 13.467   1.7304
 13.432   1.6583
 13.398   1.5965
 13.363   1.5038
 13.329   1.6068
 13.295   1.4935
 13.261   1.4626
 13.227   1.3081
 13.193   1.3287
 13.160   1.3184
 13.126   1.3699
 13.093   1.3184
 13.060   1.3699
 13.027   1.3081
 12.995   1.3493
 12.962   1.3081
 12.930   1.2875
 12.898   1.2566
 12.866   1.3905
 12.834   1.3287
 12.802   1.3287
 12.771   1.3905
 12.739   1.3905
 12.708   1.2463
 12.677   1.3184
 12.646   1.3596
 12.616   1.4214
 12.585   1.3184
 12.554   1.3596
 12.524   1.4214
 12.494   1.5141
 12.464   1.4523
 12.434   1.5038
 12.404   1.5038
 12.375   1.5656
 12.345   1.4935
 12.316   1.5244
 12.287   1.5141
 12.258   1.5347
 12.229   1.5244
 12.200   1.7201
 12.171   1.6995
 12.143   1.6583
 12.115   1.5347
 12.086   1.5862
 12.058   1.5759
 12.030   1.5965
 12.002   1.5141
 11.975   1.5553
 11.947   1.5450
 11.920   1.5965
 11.892   1.6274
 11.865   1.6377
 11.838   1.4626
 11.811   1.3699
 11.784   1.2772
 11.757   1.2463
 11.731   1.1845
 11.704   1.3184
 11.678   1.3493
 11.652   1.3802
 11.626   1.2154
 11.600   1.1742
 11.574   1.2154
 11.548   1.2669
 11.522   1.2360
 11.497   1.3596
 11.471   1.3493
 11.446   1.3081
 11.421   1.2463
 11.396   1.2463
 11.371   1.2051
 11.346   1.3081
 11.321   1.2669
 11.297   1.2566
 11.272   1.1845
 11.248   1.2669
 11.223   1.3390
 11.199   1.4008
 11.175   1.3905
 11.151   1.4832
 11.127   1.4317
 11.103   1.5141
 11.079   1.5038
 11.056   1.5141
 11.032   1.5347
 11.009   1.5965
 10.985   1.6068
 10.962   1.7510
 10.939   1.7716
 10.916   1.8643
 10.893   1.8437
 10.870   1.8437
 10.848   1.8128
 10.825   1.9055
 10.802   1.9673
 10.780   2.0497
 10.758   1.9879
 10.735   1.9776
 10.713   2.0188
 10.691   2.1527
 10.669   2.1733
 10.647   2.2351
 10.625   2.2145
 10.604   2.2248
 10.582   2.2454
 10.560   2.3175
 10.539   2.2660
 10.518   2.2866
 10.496   2.3072
 10.475   2.4720
 10.454   2.4720
 10.433   2.4926
 10.412   2.5235
 10.391   2.5544
 10.370   2.5853
 10.350   2.6265
 10.329   2.5235
 10.309   2.6162
 10.288   2.6471
 10.268   2.6265
 10.247   2.6368
 10.227   2.6574
 10.207   2.6162
 10.187   2.6677
 10.167   2.6883
 10.147   2.7707
 10.127   2.6677
 10.108   2.7192
 10.088   2.7604
 10.068   2.8222
 10.049   2.8016
 10.029   2.7398
 10.010   2.4102
  9.991   2.2763
  9.972   2.3381
  9.952   2.4720
  9.933   2.5132
  9.914   2.6265
  9.895   2.6574
  9.877   2.7501
  9.858   2.8428
  9.839   2.8943
  9.821   2.9355
  9.802   3.0076
  9.783   2.9252
  9.765   2.9664
  9.747   3.0385
  9.728   3.1209
  9.710   3.0797
  9.692   3.1724
  9.674   3.2239
  9.656   3.2960
  9.638   3.2445
  9.620   3.2445
  9.602   3.2548
  9.585   3.3784
  9.567   3.3887
  9.549   3.3990
  9.532   3.4608
  9.514   3.4917
  9.497   3.5741
  9.479   3.7183
  9.462   3.7389
  9.445   3.8831
  9.428   3.9552
  9.411   3.9964
  9.394   4.0273
  9.377   4.2024
  9.360   4.3981
  9.343   4.5835
  9.326   4.7071
  9.309   4.8719
  9.293   4.9955
  9.276   5.3251
  9.259   5.5517
  9.243   5.7680
  9.226   6.0873
  9.210   6.4478
  9.194   6.7259
  9.178   7.0864
  9.161   7.4263
  9.145   7.7971
  9.129   8.0237
  9.113   8.3018
  9.097   8.4666
  9.081   8.6417
  9.065   8.8374
  9.049   9.1258
  9.034   9.3112
  9.018   9.4657
  9.002   9.6305
  8.987   9.8365
  8.971   9.9601
  8.956  10.1043
  8.940  10.1970
  8.925  10.4236
  8.909  10.6090
  8.894  10.5369
  8.879  10.2073
  8.864   9.7541
  8.849   9.2185
  8.834   8.8168
  8.819   8.3224
  8.804   8.1267
  8.789   8.2194
  8.774   8.5490
  8.759   8.8271
  8.744   9.2082
  8.730   9.6923
  8.715  10.3103
  8.700  10.9592
  8.686  11.8038
  8.671  12.6072
  8.657  13.4106
  8.642  14.0698
  8.628  14.5642
  8.614  14.6363
  8.599  14.4097
  8.585  13.9874
  8.571  13.6372
  8.557  13.2870
  8.543  13.0810
  8.529  12.9986
  8.515  13.0089
  8.501  13.0398
  8.487  13.1634
  8.473  13.2046
  8.459  13.2046
  8.445  13.0707
  8.431  12.8853
  8.418  12.7205
  8.404  12.4630
  8.391  12.1128
  8.377  11.8141
  8.363  11.3918
  8.350  10.8768
  8.337  10.2485
  8.323   9.5687
  8.310   8.6726
  8.297   7.6117
  8.283   6.5199
  8.270   5.4384
  8.257   4.4290
  8.244   3.6256
  8.231   2.9355
  8.218   2.3896
  8.205   1.9467
  8.192   1.6377
  8.179   1.3287
  8.166   1.0918
  8.153   0.8755
  8.140   0.7828
  8.128   0.6386
  8.115   0.4944
  8.102   0.4429
  8.090   0.4738
  8.077   0.3811
  8.064   0.3296
  8.052   0.2781
  8.039   0.3399
  8.027   0.3708
  8.015   0.3090
  8.002   0.2266
  7.990   0.3605
  7.978   0.4223
  7.965   0.4017
  7.953   0.3193
  7.941   0.3296
  7.929   0.3708
  7.917   0.4017
  7.905   0.3914
  7.893   0.4120
  7.881   0.3914
  7.869   0.4017
  7.857   0.3708
  7.845   0.4326
  7.833   0.4635
  7.821   0.4635
  7.809   0.4429
  7.798   0.4326
  7.786   0.3811
  7.774   0.4532
  7.763   0.4841
  7.751   0.5253
  7.739   0.5459
  7.728   0.5974
  7.716   0.5768
  7.705   0.5871
  7.694   0.6077
  7.682   0.6592
  7.671   0.6489
  7.659   0.6489
  7.648   0.6386
  7.637   0.6901
  7.626   0.7004
  7.614   0.7210
  7.603   0.7519
  7.592   0.7931
  7.581   0.7416
  7.570   0.7931
  7.559   0.8240
  7.548   0.8961
  7.537   0.8755
  7.526   0.8240
  7.515   0.8549
  7.504   0.9476
  7.493   0.9476
  7.483   0.9167
  7.472   0.9167
  7.461   0.9682
  7.450   0.9270
  7.440   0.9991
  7.429   1.0403
  7.418   1.0506
  7.408   1.0094
  7.397   1.0403
  7.387   1.0815
  7.376   1.1330
  7.366   1.1330
  7.355   1.1124
  7.345   1.0815
  7.334   1.1433
  7.324   1.1536
  7.314   1.1845
  7.303   1.2051
  7.293   1.2360
  7.283   1.2154
  7.273   1.2257
  7.263   1.1845
  7.252   1.1845
  7.242   1.1639
  7.232   1.2154
  7.222   1.2772
  7.212   1.2978
  7.202   1.2566
  7.192   1.2978
  7.182   1.2978
  7.172   1.2566
  7.162   1.2154
  7.152   1.2463
  7.143   1.2978
  7.133   1.3390
  7.123   1.3287
  7.113   1.3596
  7.103   1.3596
  7.094   1.3390
  7.084   1.3493
  7.074   1.3905
  7.065   1.4008
  7.055   1.3802
  7.046   1.3081
  7.036   1.3390
  7.026   1.3287
  7.017   1.3184
  7.007   1.2978
  6.998   1.3596
  6.989   1.3905
  6.979   1.3905
  6.970   1.3390
  6.960   1.3390
  6.951   1.4008
  6.942   1.4111
  6.932   1.3184
  6.923   1.3184
  6.914   1.3905
  6.905   1.4214
  6.896   1.3802
  6.886   1.4008
  6.877   1.3802
  6.868   1.3493
  6.859   1.4214
  6.850   1.4935
  6.841   1.4008
  6.832   1.4317
  6.823   1.4523
  6.814   1.4523
  6.805   1.4317
  6.796   1.5141
  6.787   1.5553
  6.778   1.5450
  6.770   1.5141
  6.761   1.5038
  6.752   1.5141
  6.743   1.4935
  6.734   1.4523
  6.726   1.4317
  6.717   1.4626
  6.708   1.5656
  6.700   1.6171
  6.691   1.6068
  6.682   1.5347
  6.674   1.5759
  6.665   1.5553
  6.657   1.5347
  6.648   1.5347
  6.640   1.5656
  6.631   1.5553
  6.623   1.5244
  6.614   1.5244
  6.606   1.5450
  6.597   1.5450
  6.589   1.5965
  6.581   1.5862
  6.572   1.5759
  6.564   1.5347
  6.556   1.5347
  6.547   1.5141
  6.539   1.4832
  6.531   1.4729
  6.523   1.5244
  6.514   1.5038
  6.506   1.4317
  6.498   1.3802
  6.490   1.4420
  6.482   1.4626
  6.474   1.4626
  6.466   1.4523
  6.458   1.4523
  6.450   1.3802
  6.442   1.4214
  6.434   1.4626
  6.426   1.3802
  6.418   1.3287
  6.410   1.3596
  6.402   1.3390
  6.394   1.3699
  6.386   1.3699
  6.378   1.3596
  6.370   1.3390
  6.363   1.3287
  6.355   1.3081
  6.347   1.3596
  6.339   1.3390
  6.332   1.3081
  6.324   1.2669
  6.316   1.2772
  6.308   1.2978
  6.301   1.3287
  6.293   1.3081
  6.286   1.2772
  6.278   1.3493
  6.270   1.4008
  6.263   1.3596
  6.255   1.3390
  6.248   1.3081
  6.240   1.3287
  6.233   1.3802
  6.225   1.4008
  6.218   1.3390
  6.210   1.2978
  6.203   1.2875
  6.195   1.3596
  6.188   1.4008
  6.181   1.4008
  6.173   1.3390
  6.166   1.3390
  6.159   1.4008
  6.151   1.4420
  6.144   1.3905
  6.137   1.3802
  6.130   1.3802
  6.122   1.3905
  6.115   1.4420
  6.108   1.4729
  6.101   1.3596
  6.094   1.3596
  6.086   1.3699
  6.079   1.3184
  6.072   1.2463
  6.065   1.2772
  6.058   1.3287
  6.051   1.3184
  6.044   1.3081
  6.037   1.3081
  6.030   1.3081
  6.023   1.3081
  6.016   1.2669
  6.009   1.2669
  6.002   1.1948
  5.995   1.1536
  5.988   1.1536
  5.981   1.1845
  5.974   1.1639
  5.967   1.1433
  5.960   1.1124
  5.954   1.0815
  5.947   1.0403
  5.940   0.9682
  5.933   0.9682
  5.926   1.0094
  5.920   0.9785
  5.913   1.0094
  5.906   1.0300
  5.899   1.0403
  5.893   1.0815
  5.886   1.1124
  5.879   1.0712
  5.873   1.0300
  5.866   1.0403
  5.859   1.1227
  5.853   1.1845
  5.846   1.2257
  5.840   1.2669
  5.833   1.3390
  5.827   1.3802
  5.820   1.4111
  5.813   1.4523
  5.807   1.4832
  5.800   1.4935
  5.794   1.5141
  5.788   1.5553
  5.781   1.5862
  5.775   1.5656
  5.768   1.5862
  5.762   1.6171
  5.755   1.6274
  5.749   1.6377
  5.743   1.6377
  5.736   1.5656
  5.730   1.5862
  5.724   1.6274
  5.717   1.6789
  5.711   1.6789
  5.705   1.6686
  5.698   1.6686
  5.692   1.6583
  5.686   1.6583
  5.680   1.6995
  5.674   1.6995
  5.667   1.7098
  5.661   1.6789
  5.655   1.6789
  5.649   1.6995
  5.643   1.6686
  5.637   1.6686
  5.630   1.7201
  5.624   1.7716
  5.618   1.7819
  5.612   1.7819
  5.606   1.8025
  5.600   1.8025
  5.594   1.8437
  5.588   1.8952
  5.582   1.9261
  5.576   1.9673
  5.570   1.9776
  5.564   2.0291
  5.558   2.0703
  5.552   2.1115
  5.546   2.2145
  5.540   2.2454
  5.534   2.2145
  5.528   2.2145
  5.523   2.3072
  5.517   2.3690
  5.511   2.4102
  5.505   2.4617
  5.499   2.5235
  5.493   2.5338
  5.487   2.6368
  5.482   2.7295
  5.476   2.7501
  5.470   2.7192
  5.464   2.7398
  5.459   2.8119
  5.453   2.8943
  5.447   2.8943
  5.441   2.8943
  5.436   2.9561
  5.430   2.9870
  5.424   3.0076
  5.419   2.9664
  5.413   2.9767
  5.407   3.0591
  5.402   3.1209
  5.396   3.1518
  5.390   3.1930
  5.385   3.2136
  5.379   3.2445
  5.374   3.2754
  5.368   3.2857
  5.363   3.2960
  5.357   3.3372
  5.352   3.3681
  5.346   3.3372
  5.341   3.3578
  5.335   3.4402
  5.330   3.5020
  5.324   3.4711
  5.319   3.4505
  5.313   3.4917
  5.308   3.5535
  5.302   3.5638
  5.297   3.5947
  5.291   3.6153
  5.286   3.6359
  5.281   3.6668
  5.275   3.6874
  5.270   3.6874
  5.265   3.6977
  5.259   3.7080
  5.254   3.7389
  5.249   3.8007
  5.243   3.8419
  5.238   3.8213
  5.233   3.8316
  5.227   3.8728
  5.222   3.8831
  5.217   3.9140
  5.212   3.9449
  5.206   3.9552
  5.201   3.9552
  5.196   3.9346
  5.191   3.9346
  5.186   3.9552
  5.180   3.9861
  5.175   4.0067
  5.170   3.9861
  5.165   3.9964
  5.160   4.0685
  5.155   4.0788
  5.150   4.0788
  5.145   4.0891
  5.139   4.1097
  5.134   4.1097
  5.129   4.0582
  5.124   4.0273
  5.119   4.0376
  5.114   4.0788
  5.109   4.1200
  5.104   4.0788
  5.099   4.0891
  5.094   4.0891
  5.089   4.0479
  5.084   4.0479
  5.079   4.0376
  5.074   3.9861
  5.069   3.9655
  5.064   3.9758
  5.059   3.9861
  5.054   3.9243
  5.049   3.8728
  5.044   3.8007
  5.040   3.6977
  5.035   3.6668
  5.030   3.6977
  5.025   3.7595
  5.020   3.8316
  5.015   3.9243
  5.010   3.9552
  5.005   4.0067
  5.001   4.0376
  4.996   4.0479
  4.991   4.0582
  4.986   4.0067
  4.981   4.0067
  4.977   4.0170
  4.972   3.9964
  4.967   3.9964
  4.962   3.9861
  4.958   3.9861
  4.953   3.9861
  4.948   3.9552
  4.943   3.9346
  4.939   3.8831
  4.934   3.8419
  4.929   3.8213
  4.925   3.8007
  4.920   3.7801
  4.915   3.7801
  4.911   3.7286
  4.906   3.6565
  4.901   3.6153
  4.897   3.5329
  4.892   3.4711
  4.888   3.4505
  4.883   3.4196
  4.878   3.3166
  4.874   3.2342
  4.869   3.2239
  4.865   3.1621
  4.860   3.0694
  4.856   2.9561
  4.851   2.9252
  4.846   2.9149
  4.842   2.8222
  4.837   2.8119
  4.833   2.8531
  4.828   2.8016
  4.824   2.7810
  4.819   2.7501
  4.815   2.7192
  4.810   2.6986
  4.806   2.6986
  4.802   2.7192
  4.797   2.7810
  4.793   2.7810
  4.788   2.7295
  4.784   2.7501
  4.779   2.7707
  4.775   2.7398
  4.771   2.6574
  4.766   2.6368
  4.762   2.6265
  4.758   2.6162
  4.753   2.6368
  4.749   2.6059
  4.744   2.5853
  4.740   2.5750
  4.736   2.5338
  4.731   2.5132
  4.727   2.5235
  4.723   2.5441
  4.719   2.5441
  4.714   2.5544
  4.710   2.5853
  4.706   2.5647
  4.701   2.5647
  4.697   2.5750
  4.693   2.6162
  4.689   2.6677
  4.684   2.6677
  4.680   2.6780
  4.676   2.6780
  4.672   2.6986
  4.668   2.7707
  4.663   2.7295
  4.659   2.6986
  4.655   2.7089
  4.651   2.6883
  4.647   2.7295
  4.643   2.7192
  4.638   2.6471
  4.634   2.6471
  4.630   2.6265
  4.626   2.6059
  4.622   2.6574
  4.618   2.6986
  4.614   2.6677
  4.610   2.6471
  4.605   2.6677
  4.601   2.6986
  4.597   2.6677
  4.593   2.6162
  4.589   2.6059
  4.585   2.6162
  4.581   2.5956
  4.577   2.5750
  4.573   2.6265
  4.569   2.6471
  4.565   2.6265
  4.561   2.6368
  4.557   2.6574
  4.553   2.6780
  4.549   2.7295
  4.545   2.8016
  4.541   2.8222
  4.537   2.8428
  4.533   2.8737
  4.529   2.8840
  4.525   2.8531
  4.521   2.8634
  4.517   2.8531
  4.513   2.8737
  4.509   2.8840
  4.505   2.8428
  4.502   2.8531
  4.498   2.8428
  4.494   2.8840
  4.490   2.9252
  4.486   2.9046
  4.482   2.9046
  4.478   2.8943
  4.474   2.8428
  4.470   2.8737
  4.467   2.8943
  4.463   2.9355
  4.459   2.9458
  4.455   2.8840
  4.451   2.9046
  4.447   2.9458
  4.444   2.9252
  4.440   2.8943
  4.436   2.9149
  4.432   2.9870
  4.428   2.9973
  4.425   2.9767
  4.421   2.9664
  4.417   2.9870
  4.413   2.9973
  4.410   3.0385
  4.406   3.0488
  4.402   3.0282
  4.398   3.0282
  4.395   3.0282
  4.391   3.0076
  4.387   2.9767
  4.384   3.0076
  4.380   3.0488
  4.376   3.0076
  4.372   2.9973
  4.369   2.9767
  4.365   2.9767
  4.361   3.0076
  4.358   3.0385
  4.354   3.0282
  4.350   3.0694
  4.347   3.0797
  4.343   3.0179
  4.340   2.9561
  4.336   3.0282
  4.332   3.1003
  4.329   3.0900
  4.325   3.0694
  4.321   3.0797
  4.318   3.0900
  4.314   3.1003
  4.311   3.1209
  4.307   3.1312
  4.304   3.1415
  4.300   3.1621
  4.296   3.1518
  4.293   3.1003
  4.289   3.0694
  4.286   3.1827
  4.282   3.2239
  4.279   3.2651
  4.275   3.2754
  4.272   3.2960
  4.268   3.3475
  4.265   3.2960
  4.261   3.2651
  4.258   3.3063
  4.254   3.2960
  4.251   3.2651
  4.247   3.3063
  4.244   3.3578
  4.240   3.3990
  4.237   3.4608
  4.233   3.5123
  4.230   3.5226
  4.226   3.5638
  4.223   3.5638
  4.219   3.5329
  4.216   3.5844
  4.213   3.6256
  4.209   3.6977
  4.206   3.6874
  4.202   3.6668
  4.199   3.8007
  4.196   3.8110
  4.192   3.6977
  4.189   3.7698
  4.185   3.8522
  4.182   3.8522
  4.179   3.8522
  4.175   3.8728
  4.172   3.8728
  4.169   3.9449
  4.165   3.9964
  4.162   3.9964
  4.159   4.0067
  4.155   4.0067
  4.152   4.0582
  4.149   4.1612
  4.145   4.2024
  4.142   4.1509
  4.139   4.1200
  4.135   4.2230
  4.132   4.2745
  4.129   4.1303
  4.126   4.0788
  4.122   4.1612
  4.119   4.1406
  4.116   4.1715
  4.112   4.2333
  4.109   4.2848
  4.106   4.3672
  4.103   4.3981
  4.099   4.3981
  4.096   4.4702
  4.093   4.4393
  4.090   4.4805
  4.086   4.5938
  4.083   4.6144
  4.080   4.5835
  4.077   4.5320
  4.074   4.5217
  4.070   4.6144
  4.067   4.6350
  4.064   4.7071
  4.061   4.7792
  4.058   4.7071
  4.055   4.6350
  4.051   4.7174
  4.048   4.7895
  4.045   4.7895
  4.042   4.7895
  4.039   4.8410
  4.036   4.8307
  4.032   4.7998
  4.029   4.8204
  4.026   4.8925
  4.023   4.9234
  4.020   4.9646
  4.017   4.9646
  4.014   4.9543
  4.011   4.9749
  4.008   5.0470
  4.004   5.0985
  4.001   5.0882
  3.998   5.0779
  3.995   5.0985
  3.992   5.0779
  3.989   5.0676
  3.986   5.0985
  3.983   5.0985
  3.980   5.0882
  3.977   5.0882
  3.974   5.1294
  3.971   5.1397
  3.968   5.1500
  3.965   5.1706
  3.962   5.1397
  3.959   5.1191
  3.956   5.1397
  3.953   5.1603
  3.950   5.1912
  3.947   5.2221
  3.944   5.2015
  3.941   5.2118
  3.938   5.1809
  3.935   5.2118
  3.932   5.1809
  3.929   5.1603
  3.926   5.1809
  3.923   5.1397
  3.920   5.1294
  3.917   5.1500
  3.914   5.1603
  3.911   5.1603
  3.908   5.2015
  3.905   5.2221
  3.902   5.2118
  3.899   5.2221
  3.896   5.2221
  3.893   5.2530
  3.890   5.2015
  3.887   5.0985
  3.884   5.0882
  3.882   5.1294
  3.879   5.1294
  3.876   5.1500
  3.873   5.1500
  3.870   5.1088
  3.867   5.1191
  3.864   5.1500
  3.861   5.1397
  3.858   5.1603
  3.856   5.1603
  3.853   5.0676
  3.850   5.0470
  3.847   5.0264
  3.844   4.9646
  3.841   5.0573
  3.838   5.0264
  3.836   5.0058
  3.833   5.0058
  3.830   4.9440
  3.827   4.9131
  3.824   4.9440
  3.822   4.8822
  3.819   4.8307
  3.816   4.7483
  3.813   4.7174
  3.810   4.8204
  3.807   4.8410
  3.805   4.7792
  3.802   4.7174
  3.799   4.7380
  3.796   4.6762
  3.794   4.5629
  3.791   4.5732
  3.788   4.6659
  3.785   4.6144
  3.782   4.5114
  3.780   4.4805
  3.777   4.4393
  3.774   4.5114
  3.771   4.5423
  3.769   4.4702
  3.766   4.4393
  3.763   4.5011
  3.761   4.4805
  3.758   4.4805
  3.755   4.5011
  3.752   4.5217
  3.750   4.4496
  3.747   4.4393
  3.744   4.4599
  3.742   4.4496
  3.739   4.4187
  3.736   4.4599
  3.733   4.4187
  3.731   4.3878
  3.728   4.4393
  3.725   4.4599
  3.723   4.4084
  3.720   4.4393
  3.717   4.4393
  3.715   4.4187
  3.712   4.3775
  3.709   4.3363
  3.707   4.3157
  3.704   4.2745
  3.702   4.2642
  3.699   4.2848
  3.696   4.2024
  3.694   4.1303
  3.691   4.1921
  3.688   4.3054
  3.686   4.2333
  3.683   4.1303
  3.680   4.1200
  3.678   4.1303
  3.675   4.1406
  3.673   4.1921
  3.670   4.1303
  3.667   4.0273
  3.665   3.9346
  3.662   3.9449
  3.660   3.9449
  3.657   3.9140
  3.655   3.8522
  3.652   3.8110
  3.649   3.7389
  3.647   3.7904
  3.644   3.7492
  3.642   3.6977
  3.639   3.7080
  3.637   3.7595
  3.634   3.6565
  3.632   3.6050
  3.629   3.5947
  3.626   3.5844
  3.624   3.5844
  3.621   3.5741
  3.619   3.5329
  3.616   3.4711
  3.614   3.4608
  3.611   3.4505
  3.609   3.4299
  3.606   3.4093
  3.604   3.3887
  3.601   3.3578
  3.599   3.3578
  3.596   3.3372
  3.594   3.3269
  3.591   3.3372
  3.589   3.3063
  3.586   3.2857
  3.584   3.2136
  3.581   3.1930
