Name: Eugsterite Na4Ca(SO4)3 * 2H2O
Type: Mineral
Class: Sulfate
Subclass:
Particle Size: Unsieved coarse powder
Sample No.: None
Owner: USGS
Wavelength range: 0.40 - 14.05 um
Origin: Evaporation of Na2SO4 + CaSO4 solution at 70 deg. C

Description: Eugsterite, sample contained a small amount of gypsum





Measurement: Directional Hemispherical Reflectance
First Column: X
Second Column: Y
X Units: Wavelength (micrometers)
Y Units: Reflectance (percent)
First X Value: 14.05105
Last X Value: 0.40000
Number of X Values: 2756
Additional Information: None

 14.051   3.1930
 14.013   3.1518
 13.975   3.1312
 13.938   3.1827
 13.900   3.3063
 13.863   3.3372
 13.826   3.5329
 13.790   3.5638
 13.753   3.5844
 13.717   3.6462
 13.680   3.8213
 13.644   3.8213
 13.609   3.9655
 13.573   4.0170
 13.538   4.0582
 13.502   4.0376
 13.467   4.0685
 13.432   4.0479
 13.398   4.0788
 13.363   4.1097
 13.329   4.1715
 13.295   4.2024
 13.261   4.2951
 13.227   4.2642
 13.193   4.3054
 13.160   4.3260
 13.126   4.3878
 13.093   4.4084
 13.060   4.4599
 13.027   4.4805
 12.995   4.5320
 12.962   4.4393
 12.930   4.3878
 12.898   4.3878
 12.866   4.4599
 12.834   4.4908
 12.802   4.5732
 12.771   4.6041
 12.739   4.7071
 12.708   4.7689
 12.677   4.8822
 12.646   4.9852
 12.616   5.0264
 12.585   5.0470
 12.554   5.2530
 12.524   5.3766
 12.494   5.4899
 12.464   5.6135
 12.434   5.7577
 12.404   5.8298
 12.375   6.0049
 12.345   6.1388
 12.316   6.3551
 12.287   6.5199
 12.258   6.6435
 12.229   6.7877
 12.200   6.9628
 12.171   7.0452
 12.143   7.1585
 12.115   7.2615
 12.086   7.4675
 12.058   7.6014
 12.030   7.7559
 12.002   7.9001
 11.975   8.0752
 11.947   8.1885
 11.920   8.3327
 11.892   8.3739
 11.865   8.4048
 11.838   8.4048
 11.811   8.6005
 11.784   8.7550
 11.757   8.8477
 11.731   8.8889
 11.704   8.9919
 11.678   8.9816
 11.652   8.9610
 11.626   8.9507
 11.600   9.0434
 11.574   9.0228
 11.548   8.9610
 11.522   8.8271
 11.497   8.6932
 11.471   8.3430
 11.446   8.0958
 11.421   8.1267
 11.396   8.3636
 11.371   8.3842
 11.346   8.2194
 11.321   8.2606
 11.297   8.4975
 11.272   8.7241
 11.248   8.9713
 11.223   9.0537
 11.199   9.1773
 11.175   9.2288
 11.151   9.2391
 11.127   9.1670
 11.103   9.1567
 11.079   9.1979
 11.056   9.2391
 11.032   9.2391
 11.009   9.3524
 10.985   9.3730
 10.962   9.3318
 10.939   9.2494
 10.916   9.1979
 10.893   9.1258
 10.870   9.1155
 10.848   8.9919
 10.825   8.8992
 10.802   8.7859
 10.780   8.6314
 10.758   8.4872
 10.735   8.4666
 10.713   8.4460
 10.691   8.4769
 10.669   8.4254
 10.647   8.3636
 10.625   8.2297
 10.604   8.1370
 10.582   8.0340
 10.560   7.9516
 10.539   7.8177
 10.518   7.7044
 10.496   7.6014
 10.475   7.5499
 10.454   7.3851
 10.433   7.2306
 10.412   7.0761
 10.391   6.9525
 10.370   6.8186
 10.350   6.7877
 10.329   6.6332
 10.309   6.5096
 10.288   6.3654
 10.268   6.1697
 10.247   5.8092
 10.227   5.4281
 10.207   5.2530
 10.187   5.2530
 10.167   5.1088
 10.147   4.9646
 10.127   4.7998
 10.108   4.7174
 10.088   4.7483
 10.068   4.8307
 10.049   4.7895
 10.029   4.8204
 10.010   4.7895
  9.991   4.7586
  9.972   4.7071
  9.952   4.7174
  9.933   4.6968
  9.914   4.7277
  9.895   4.7277
  9.877   4.8822
  9.858   5.0161
  9.839   5.0676
  9.821   5.0676
  9.802   5.1397
  9.783   5.0882
  9.765   5.0676
  9.747   5.0882
  9.728   5.0882
  9.710   5.0779
  9.692   5.1191
  9.674   5.0573
  9.656   5.0058
  9.638   4.9234
  9.620   4.8822
  9.602   4.8410
  9.585   4.7998
  9.567   4.6968
  9.549   4.6762
  9.532   4.5938
  9.514   4.5629
  9.497   4.4702
  9.479   4.4084
  9.462   4.3157
  9.445   4.3672
  9.428   4.3260
  9.411   4.2951
  9.394   4.2642
  9.377   4.2848
  9.360   4.2642
  9.343   4.2539
  9.326   4.2539
  9.309   4.3054
  9.293   4.3363
  9.276   4.4084
  9.259   4.4290
  9.243   4.4908
  9.226   4.5320
  9.210   4.5526
  9.194   4.6247
  9.178   4.7792
  9.161   4.9543
  9.145   5.1500
  9.129   5.3045
  9.113   5.5311
  9.097   5.8092
  9.081   6.2315
  9.065   6.7156
  9.049   7.2821
  9.034   7.8074
  9.018   8.2709
  9.002   8.6623
  8.987   9.0846
  8.971   9.4966
  8.956   9.9601
  8.940  10.5163
  8.925  11.2064
  8.909  11.9583
  8.894  12.7205
  8.879  13.2973
  8.864  13.7402
  8.849  14.0183
  8.834  14.2346
  8.819  14.2861
  8.804  14.2346
  8.789  14.1625
  8.774  14.1316
  8.759  14.0389
  8.744  13.9050
  8.730  13.7402
  8.715  13.6681
  8.700  13.5445
  8.686  13.4518
  8.671  13.3797
  8.657  13.3179
  8.642  13.2561
  8.628  13.1840
  8.614  13.0810
  8.599  13.0707
  8.585  13.0398
  8.571  13.0501
  8.557  13.0913
  8.543  13.2355
  8.529  13.3694
  8.515  13.5342
  8.501  13.7402
  8.487  13.9565
  8.473  14.1213
  8.459  14.2552
  8.445  14.1213
  8.431  13.7711
  8.418  13.3179
  8.404  12.8441
  8.391  12.3806
  8.377  11.9892
  8.363  11.5772
  8.350  11.2373
  8.337  10.9077
  8.323  10.6193
  8.310  10.1352
  8.297   9.3730
  8.283   8.3842
  8.270   7.3233
  8.257   6.2727
  8.244   5.3972
  8.231   4.6453
  8.218   3.9964
  8.205   3.4093
  8.192   3.0076
  8.179   2.6471
  8.166   2.3072
  8.153   2.0394
  8.140   1.8849
  8.128   1.7304
  8.115   1.6068
  8.102   1.4832
  8.090   1.3802
  8.077   1.2463
  8.064   1.2051
  8.052   1.1021
  8.039   0.9785
  8.027   0.8652
  8.015   0.8034
  8.002   0.7416
  7.990   0.7416
  7.978   0.7107
  7.965   0.6901
  7.953   0.6489
  7.941   0.6180
  7.929   0.5459
  7.917   0.5253
  7.905   0.5459
  7.893   0.5768
  7.881   0.5150
  7.869   0.5562
  7.857   0.5768
  7.845   0.5665
  7.833   0.5665
  7.821   0.5974
  7.809   0.6283
  7.798   0.6283
  7.786   0.5871
  7.774   0.6489
  7.763   0.6901
  7.751   0.6901
  7.739   0.6901
  7.728   0.7210
  7.716   0.7416
  7.705   0.8137
  7.694   0.8446
  7.682   0.8137
  7.671   0.7828
  7.659   0.8549
  7.648   0.9064
  7.637   0.9682
  7.626   0.9991
  7.614   1.1021
  7.603   1.1330
  7.592   1.1845
  7.581   1.2257
  7.570   1.2669
  7.559   1.3287
  7.548   1.4008
  7.537   1.4317
  7.526   1.5038
  7.515   1.5347
  7.504   1.6171
  7.493   1.6377
  7.483   1.6068
  7.472   1.6171
  7.461   1.6686
  7.450   1.7098
  7.440   1.7407
  7.429   1.7613
  7.418   1.8025
  7.408   1.7510
  7.397   1.7098
  7.387   1.7922
  7.376   1.9467
  7.366   2.0497
  7.355   2.1939
  7.345   2.3072
  7.334   2.4411
  7.324   2.5235
  7.314   2.5853
  7.303   2.6574
  7.293   2.8325
  7.283   2.9458
  7.273   2.9767
  7.263   3.0179
  7.252   3.1209
  7.242   3.2033
  7.232   3.2960
  7.222   3.3166
  7.212   3.3269
  7.202   3.2651
  7.192   3.2342
  7.182   3.1518
  7.172   3.0591
  7.162   2.9870
  7.152   2.9149
  7.143   2.8737
  7.133   2.8325
  7.123   2.6368
  7.113   2.4308
  7.103   2.5750
  7.094   3.0179
  7.084   3.4196
  7.074   3.7595
  7.065   3.9037
  7.055   3.9552
  7.046   3.9346
  7.036   3.7801
  7.026   3.6359
  7.017   3.7801
  7.007   4.0479
  6.998   4.2848
  6.989   4.4290
  6.979   4.3260
  6.970   3.9449
  6.960   3.9861
  6.951   4.5526
  6.942   4.9646
  6.932   5.1500
  6.923   5.2633
  6.914   5.3457
  6.905   5.4487
  6.896   5.4796
  6.886   5.5208
  6.877   5.5414
  6.868   5.6135
  6.859   5.6650
  6.850   5.5929
  6.841   5.5208
  6.832   5.4590
  6.823   5.3354
  6.814   5.2015
  6.805   5.0264
  6.796   4.8307
  6.787   4.5629
  6.778   4.1818
  6.770   3.6771
  6.761   3.2857
  6.752   3.3887
  6.743   3.9861
  6.734   4.5732
  6.726   4.9131
  6.717   5.1500
  6.708   5.3972
  6.700   5.5105
  6.691   5.6341
  6.682   5.8298
  6.674   6.0770
  6.665   6.2830
  6.657   6.4684
  6.648   6.6126
  6.640   6.8907
  6.631   7.1585
  6.623   7.2718
  6.614   7.3233
  6.606   7.4160
  6.597   7.5396
  6.589   7.6941
  6.581   7.8692
  6.572   8.1576
  6.564   8.4460
  6.556   8.6108
  6.547   8.8168
  6.539   8.9919
  6.531   9.0949
  6.523   9.2391
  6.514   9.3833
  6.506   9.4039
  6.498   9.5069
  6.490   9.6511
  6.482   9.5996
  6.474   9.3936
  6.466   9.1464
  6.458   8.8374
  6.450   8.4975
  6.442   8.0958
  6.434   7.6632
  6.426   7.2718
  6.418   7.0658
  6.410   7.0761
  6.402   7.0143
  6.394   6.9010
  6.386   6.8392
  6.378   6.7980
  6.370   6.7568
  6.363   6.6744
  6.355   6.5405
  6.347   6.4684
  6.339   6.3757
  6.332   6.2418
  6.324   6.0770
  6.316   5.9328
  6.308   5.8298
  6.301   5.7577
  6.293   5.6753
  6.286   5.5620
  6.278   5.4899
  6.270   5.4178
  6.263   5.2633
  6.255   5.0882
  6.248   4.8822
  6.240   4.6453
  6.233   4.3363
  6.225   4.0891
  6.218   3.9552
  6.210   3.9552
  6.203   4.0479
  6.195   4.1097
  6.188   4.1097
  6.181   4.1303
  6.173   4.1715
  6.166   4.2539
  6.159   4.4290
  6.151   4.7071
  6.144   4.9543
  6.137   5.1294
  6.130   5.1809
  6.122   5.1500
  6.115   5.1088
  6.108   5.0779
  6.101   4.9646
  6.094   4.9749
  6.086   5.1706
  6.079   5.5105
  6.072   5.9431
  6.065   6.3551
  6.058   6.6641
  6.051   7.0143
  6.044   7.3439
  6.037   7.4057
  6.030   7.4469
  6.023   7.5602
  6.016   7.6323
  6.009   7.7147
  6.002   7.7044
  5.995   7.6941
  5.988   7.7250
  5.981   7.6632
  5.974   7.4984
  5.967   7.3233
  5.960   7.0452
  5.954   6.7053
  5.947   6.4478
  5.940   6.5920
  5.933   6.9834
  5.926   7.4366
  5.920   7.8898
  5.913   8.3533
  5.906   8.8374
  5.899   9.3936
  5.893  10.0425
  5.886  10.6399
  5.879  11.3403
  5.873  11.9068
  5.866  11.9892
  5.859  12.1643
  5.853  12.4836
  5.846  12.9162
  5.840  13.4209
  5.833  14.0492
  5.827  14.6054
  5.820  15.0998
  5.813  15.4088
  5.807  15.5324
  5.800  15.6766
  5.794  15.8620
  5.788  16.0268
  5.781  16.2637
  5.775  16.5418
  5.768  16.9023
  5.762  17.3452
  5.755  17.4791
  5.749  17.5615
  5.743  17.7778
  5.736  17.8808
  5.730  17.9735
  5.724  18.0559
  5.717  18.1280
  5.711  18.2207
  5.705  18.4267
  5.698  18.7563
  5.692  19.2919
  5.686  19.8172
  5.680  20.2086
  5.674  20.5485
  5.667  20.9399
  5.661  21.2901
  5.655  21.6712
  5.649  22.0935
  5.643  22.6085
  5.637  23.0823
  5.630  23.3604
  5.624  23.6591
  5.618  24.0608
  5.612  24.4625
  5.606  24.7921
  5.600  25.0496
  5.594  25.2762
  5.588  25.3998
  5.582  25.6161
  5.576  25.9148
  5.570  26.0487
  5.564  26.1002
  5.558  26.2753
  5.552  26.4504
  5.546  26.5946
  5.540  26.6976
  5.534  26.8418
  5.528  26.9551
  5.523  27.0375
  5.517  27.0581
  5.511  27.0581
  5.505  27.0581
  5.499  27.1405
  5.493  27.2332
  5.487  27.3877
  5.482  27.5628
  5.476  27.8512
  5.470  28.2323
  5.464  28.8091
  5.459  29.4168
  5.453  29.9009
  5.447  30.3644
  5.441  30.7867
  5.436  31.1472
  5.430  31.4459
  5.424  31.7755
  5.419  32.1875
  5.413  32.4450
  5.407  32.7437
  5.402  33.1351
  5.396  33.5265
  5.390  33.8355
  5.385  34.0930
  5.379  34.2990
  5.374  34.4535
  5.368  34.6080
  5.363  34.7316
  5.357  34.8449
  5.352  34.9994
  5.346  35.1436
  5.341  35.1745
  5.335  35.2260
  5.330  35.3496
  5.324  35.4423
  5.319  35.5144
  5.313  35.5453
  5.308  35.6174
  5.302  35.6689
  5.297  35.7307
  5.291  35.8234
  5.286  35.8955
  5.281  35.8749
  5.275  35.9161
  5.270  35.9676
  5.265  35.9882
  5.259  36.0088
  5.254  36.0191
  5.249  36.0500
  5.243  36.0706
  5.238  36.0397
  5.233  36.0603
  5.227  36.0706
  5.222  36.0397
  5.217  36.0294
  5.212  36.0912
  5.206  36.0809
  5.201  35.9985
  5.196  35.9573
  5.191  35.9573
  5.186  35.9264
  5.180  35.8543
  5.175  35.8234
  5.170  35.7719
  5.165  35.6895
  5.160  35.6586
  5.155  35.5762
  5.150  35.4629
  5.145  35.3599
  5.139  35.1745
  5.134  34.9376
  5.129  34.7110
  5.124  34.5874
  5.119  34.5359
  5.114  34.4432
  5.109  34.3093
  5.104  34.1445
  5.099  34.0312
  5.094  33.9076
  5.089  33.7737
  5.084  33.6398
  5.079  33.5059
  5.074  33.3308
  5.069  33.1763
  5.064  33.0527
  5.059  32.9188
  5.054  32.7952
  5.049  32.6716
  5.044  32.4862
  5.040  32.3111
  5.035  32.1257
  5.030  31.9403
  5.025  31.7446
  5.020  31.5592
  5.015  31.3532
  5.010  31.1266
  5.005  30.8794
  5.001  30.6425
  4.996  30.4365
  4.991  30.2202
  4.986  29.9215
  4.981  29.6537
  4.977  29.4065
  4.972  29.1799
  4.967  28.9533
  4.962  28.7370
  4.958  28.4898
  4.953  28.1911
  4.948  27.8615
  4.943  27.5422
  4.939  27.2435
  4.934  26.9242
  4.929  26.5431
  4.925  26.1826
  4.920  25.8324
  4.915  25.4925
  4.911  25.1114
  4.906  24.7200
  4.901  24.2874
  4.897  23.8239
  4.892  23.3604
  4.888  22.8969
  4.883  22.3613
  4.878  21.8154
  4.874  21.2489
  4.869  20.6412
  4.865  20.0232
  4.860  19.3949
  4.856  18.7048
  4.851  17.9838
  4.846  17.2010
  4.842  16.3667
  4.837  15.6457
  4.833  15.0792
  4.828  14.4715
  4.824  13.6990
  4.819  12.7411
  4.815  11.6802
  4.810  10.5575
  4.806   9.3730
  4.802   8.1267
  4.797   6.8083
  4.793   5.6032
  4.788   4.6453
  4.784   3.8934
  4.779   3.3372
  4.775   3.0076
  4.771   2.8943
  4.766   2.9767
  4.762   3.0488
  4.758   3.0591
  4.753   3.0488
  4.749   3.0694
  4.744   3.0591
  4.740   3.0282
  4.736   3.0385
  4.731   3.1415
  4.727   3.3372
  4.723   3.6153
  4.719   3.9243
  4.714   4.2539
  4.710   4.6041
  4.706   4.9234
  4.701   5.1706
  4.697   5.4384
  4.693   5.6959
  4.689   5.8813
  4.684   5.9637
  4.680   6.0255
  4.676   5.9328
  4.672   5.8195
  4.668   5.8195
  4.663   5.8504
  4.659   5.9328
  4.655   6.0873
  4.651   6.2418
  4.647   6.3860
  4.643   6.4890
  4.638   6.6332
  4.634   6.8289
  4.630   7.0555
  4.626   7.3027
  4.622   7.5190
  4.618   7.6220
  4.614   7.5087
  4.610   7.2306
  4.605   6.8907
  4.601   6.5714
  4.597   6.2624
  4.593   5.9946
  4.589   5.8195
  4.585   5.6856
  4.581   5.6238
  4.577   5.6444
  4.573   5.7474
  4.569   5.9225
  4.565   6.2418
  4.561   6.8289
  4.557   7.8692
  4.553   9.1773
  4.549  10.4339
  4.545  11.3403
  4.541  11.8141
  4.537  11.8038
  4.533  11.4742
  4.529  10.8871
  4.525  10.1558
  4.521   9.4142
  4.517   8.7344
  4.513   8.1679
  4.509   7.7559
  4.505   7.4881
  4.502   7.1894
  4.498   6.8701
  4.494   6.6538
  4.490   6.6126
  4.486   6.6538
  4.482   6.6847
  4.478   6.6641
  4.474   6.5920
  4.470   6.5920
  4.467   6.6229
  4.463   6.6229
  4.459   6.6332
  4.455   6.6332
  4.451   6.5405
  4.447   6.4478
  4.444   6.4066
  4.440   6.4581
  4.436   6.5817
  4.432   6.7259
  4.428   6.8701
  4.425   6.9731
  4.421   7.1070
  4.417   7.2924
  4.413   7.4160
  4.410   7.5087
  4.406   7.6426
  4.402   7.7971
  4.398   7.9104
  4.395   8.0752
  4.391   8.2709
  4.387   8.3945
  4.384   8.4357
  4.380   8.4769
  4.376   8.3945
  4.372   8.1885
  4.369   8.0031
  4.365   7.8795
  4.361   7.7456
  4.358   7.6529
  4.354   7.6426
  4.350   7.6838
  4.347   7.8280
  4.343   8.0752
  4.340   8.4357
  4.336   8.8374
  4.332   9.2391
  4.329   9.7026
  4.325  10.1146
  4.321  10.4545
  4.318  10.7944
  4.314  11.1137
  4.311  11.4227
  4.307  11.8038
  4.304  12.2673
  4.300  12.8338
  4.296  13.5548
  4.293  14.3273
  4.289  15.0998
  4.286  15.7590
  4.282  16.2534
  4.279  16.5624
  4.275  16.5933
  4.272  16.4491
  4.268  16.4388
  4.265  16.7478
  4.261  17.3555
  4.258  18.2104
  4.254  19.2095
  4.251  20.3116
  4.247  21.3725
  4.244  22.3201
  4.240  23.1647
  4.237  23.8239
  4.233  24.3183
  4.230  24.7200
  4.226  24.9981
  4.223  25.2350
  4.219  25.4719
  4.216  25.5852
  4.213  25.6985
  4.209  25.8942
  4.206  26.0281
  4.202  26.1620
  4.199  26.3577
  4.196  26.6358
  4.192  26.9242
  4.189  27.1817
  4.185  27.4392
  4.182  27.6864
  4.179  27.9851
  4.175  28.2838
  4.172  28.5928
  4.169  28.8812
  4.165  29.1593
  4.162  29.4374
  4.159  29.7258
  4.155  30.0142
  4.152  30.2099
  4.149  30.4777
  4.145  30.7352
  4.142  31.0133
  4.139  31.2914
  4.135  31.5489
  4.132  31.8579
  4.129  32.1463
  4.126  32.3214
  4.122  32.5377
  4.119  32.8158
  4.116  33.1248
  4.112  33.3308
  4.109  33.5059
  4.106  33.6913
  4.103  33.8767
  4.099  34.1239
  4.096  34.2990
  4.093  34.4020
  4.090  34.4947
  4.086  34.6389
  4.083  34.8758
  4.080  35.0612
  4.077  35.2157
  4.074  35.2466
  4.070  35.2363
  4.067  35.3908
  4.064  35.7719
  4.061  36.1221
  4.058  36.3075
  4.055  36.5547
  4.051  36.7607
  4.048  36.8946
  4.045  37.0285
  4.042  37.1315
  4.039  37.2963
  4.036  37.4508
  4.032  37.5538
  4.029  37.6568
  4.026  37.6877
  4.023  37.8010
  4.020  38.1203
  4.017  38.3366
  4.014  38.4602
  4.011  38.5529
  4.008  38.6971
  4.004  38.7795
  4.001  38.7692
  3.998  38.8001
  3.995  38.9134
  3.992  38.9855
  3.989  38.9958
  3.986  39.0576
  3.983  39.1503
  3.980  39.2121
  3.977  39.2842
  3.974  39.3357
  3.971  39.3769
  3.968  39.4696
  3.965  39.5726
  3.962  39.6138
  3.959  39.6653
  3.956  39.6756
  3.953  39.5932
  3.950  39.4696
  3.947  39.5005
  3.944  39.7168
  3.941  39.9537
  3.938  40.0876
  3.935  40.1803
  3.932  40.2524
  3.929  40.3142
  3.926  40.3760
  3.923  40.4378
  3.920  40.4378
  3.917  40.4893
  3.914  40.5305
  3.911  40.5820
  3.908  40.6026
  3.905  40.5923
  3.902  40.6026
  3.899  40.6747
  3.896  40.5923
  3.893  40.4996
  3.890  40.5099
  3.887  40.5511
  3.884  40.5202
  3.882  40.4378
  3.879  40.4275
  3.876  40.4687
  3.873  40.4893
  3.870  40.4275
  3.867  40.3142
  3.864  40.2112
  3.861  40.0979
  3.858  39.9331
  3.856  39.7580
  3.853  39.6241
  3.850  39.5520
  3.847  39.6138
  3.844  39.6550
  3.841  39.6344
  3.838  39.5623
  3.836  39.5932
  3.833  39.6756
  3.830  39.7374
  3.827  39.7374
  3.824  39.7889
  3.822  39.8301
  3.819  39.7477
  3.816  39.6447
  3.813  39.5623
  3.810  39.4387
  3.807  39.2945
  3.805  39.1606
  3.802  39.0885
  3.799  39.0370
  3.796  39.0473
  3.794  38.9855
  3.791  38.9752
  3.788  38.9649
  3.785  38.9031
  3.782  38.7898
  3.780  38.8104
  3.777  38.8310
  3.774  38.8516
  3.771  38.7898
  3.769  38.8104
  3.766  38.9443
  3.763  39.0370
  3.761  39.0782
  3.758  39.2018
  3.755  39.2945
  3.752  39.4078
  3.750  39.5417
  3.747  39.5829
  3.744  39.5623
  3.742  39.5932
  3.739  39.6035
  3.736  39.6138
  3.733  39.5932
  3.731  39.6138
  3.728  39.6550
  3.725  39.6035
  3.723  39.5108
  3.720  39.4902
  3.717  39.4902
  3.715  39.4490
  3.712  39.3357
  3.709  39.2739
  3.707  39.1606
  3.704  39.0782
  3.702  39.0061
  3.699  38.8928
  3.696  38.8001
  3.694  38.7692
  3.691  38.6662
  3.688  38.6044
  3.686  38.5014
  3.683  38.3366
  3.680  38.2542
  3.678  38.2027
  3.675  38.0997
  3.673  38.0070
  3.670  37.9349
  3.667  37.8216
  3.665  37.7289
  3.662  37.6671
  3.660  37.5744
  3.657  37.4714
  3.655  37.3890
  3.652  37.3478
  3.649  37.2963
  3.647  37.1727
  3.644  37.0800
  3.642  37.0491
  3.639  36.9358
  3.637  36.8637
  3.634  36.8122
  3.632  36.7298
  3.629  36.6165
  3.626  36.4929
  3.624  36.4208
  3.621  36.3487
  3.619  36.2354
  3.616  36.1427
  3.614  35.9882
  3.611  35.9058
  3.609  35.8028
  3.606  35.6689
  3.604  35.5556
  3.601  35.4938
  3.599  35.4114
  3.596  35.2157
  3.594  35.0303
  3.591  34.9582
  3.589  34.8552
  3.586  34.7007
