Name: Gypsum CaSO4 * 2H2O
Type: Mineral
Class: Sulfate
Subclass: None
Particle Size: Unsieved coarse powder
Sample No.: None
Owner: USGS
Wavelength range: 0.40 - 14.05 um
Origin: Mesquite playa, California

Description: Gypsum from Mesquite Playa, CA





Measurement: Directional Hemispherical Reflectance
First Column: X
Second Column: Y
X Units: Wavelength (micrometers)
Y Units: Reflectance (percent)
First X Value: 14.05105
Last X Value: 0.40000
Number of X Values: 2756
Additional Information: None

 14.051   1.3184
 14.013   1.3287
 13.975   1.4111
 13.938   1.1948
 13.900   1.1742
 13.863   1.1227
 13.826   1.2154
 13.790   1.2154
 13.753   1.3699
 13.717   1.2772
 13.680   1.3493
 13.644   1.3184
 13.609   1.3699
 13.573   1.3699
 13.538   1.4111
 13.502   1.3596
 13.467   1.4214
 13.432   1.4214
 13.398   1.4729
 13.363   1.4729
 13.329   1.5553
 13.295   1.5347
 13.261   1.5347
 13.227   1.5141
 13.193   1.5759
 13.160   1.5141
 13.126   1.5656
 13.093   1.6171
 13.060   1.7098
 13.027   1.6480
 12.995   1.6274
 12.962   1.5553
 12.930   1.6995
 12.898   1.7304
 12.866   1.7510
 12.834   1.7304
 12.802   1.8025
 12.771   1.7716
 12.739   1.7819
 12.708   1.7201
 12.677   1.7613
 12.646   1.7819
 12.616   1.8334
 12.585   1.8231
 12.554   1.8952
 12.524   1.8643
 12.494   1.8746
 12.464   1.8231
 12.434   1.8746
 12.404   1.8643
 12.375   1.8952
 12.345   1.9364
 12.316   2.0291
 12.287   1.9673
 12.258   1.9879
 12.229   2.0188
 12.200   2.0291
 12.171   1.9673
 12.143   2.0188
 12.115   2.0394
 12.086   2.0806
 12.058   2.0085
 12.030   2.0703
 12.002   2.0600
 11.975   2.1012
 11.947   2.0806
 11.920   2.1527
 11.892   2.1218
 11.865   2.1527
 11.838   2.1321
 11.811   2.2145
 11.784   2.1630
 11.757   2.1630
 11.731   2.1424
 11.704   2.1733
 11.678   2.1424
 11.652   2.2351
 11.626   2.1939
 11.600   2.2763
 11.574   2.3175
 11.548   2.3587
 11.522   2.3175
 11.497   2.3587
 11.471   2.3896
 11.446   2.4617
 11.421   2.3896
 11.396   2.3587
 11.371   2.3072
 11.346   2.3690
 11.321   2.3484
 11.297   2.4102
 11.272   2.3896
 11.248   2.4720
 11.223   2.4205
 11.199   2.4514
 11.175   2.4823
 11.151   2.5029
 11.127   2.4205
 11.103   2.4617
 11.079   2.5029
 11.056   2.5750
 11.032   2.5235
 11.009   2.5235
 10.985   2.4720
 10.962   2.5132
 10.939   2.4823
 10.916   2.5132
 10.893   2.5132
 10.870   2.5647
 10.848   2.5750
 10.825   2.6265
 10.802   2.5956
 10.780   2.5956
 10.758   2.5853
 10.735   2.6059
 10.713   2.5338
 10.691   2.5750
 10.669   2.6059
 10.647   2.6677
 10.625   2.6780
 10.604   2.6986
 10.582   2.6986
 10.560   2.7192
 10.539   2.6986
 10.518   2.7398
 10.496   2.7192
 10.475   2.7501
 10.454   2.7604
 10.433   2.7810
 10.412   2.7398
 10.391   2.8222
 10.370   2.8222
 10.350   2.8119
 10.329   2.8016
 10.309   2.8325
 10.288   2.8428
 10.268   2.9149
 10.247   2.9046
 10.227   2.9046
 10.207   2.8428
 10.187   2.8840
 10.167   2.9252
 10.147   2.9973
 10.127   3.0076
 10.108   3.0179
 10.088   2.9870
 10.068   3.0282
 10.049   3.0591
 10.029   3.1209
 10.010   3.0694
  9.991   3.1209
  9.972   3.1106
  9.952   3.1312
  9.933   3.1106
  9.914   3.1827
  9.895   3.2857
  9.877   3.3475
  9.858   3.3269
  9.839   3.4093
  9.821   3.4402
  9.802   3.5020
  9.783   3.5329
  9.765   3.5741
  9.747   3.5844
  9.728   3.6256
  9.710   3.5638
  9.692   3.6462
  9.674   3.7183
  9.656   3.7904
  9.638   3.8007
  9.620   3.8419
  9.602   3.8419
  9.585   3.9449
  9.567   4.0273
  9.549   4.0994
  9.532   4.0685
  9.514   4.0685
  9.497   4.0685
  9.479   4.1818
  9.462   4.1921
  9.445   4.3054
  9.428   4.3466
  9.411   4.4290
  9.394   4.4599
  9.377   4.5423
  9.360   4.5835
  9.343   4.6968
  9.326   4.7895
  9.309   4.9234
  9.293   4.9646
  9.276   5.0882
  9.259   5.2015
  9.243   5.3457
  9.226   5.4693
  9.210   5.6650
  9.194   5.8298
  9.178   6.0873
  9.161   6.3139
  9.145   6.5611
  9.129   6.7877
  9.113   7.1585
  9.097   7.5293
  9.081   7.9104
  9.065   8.3327
  9.049   8.9095
  9.034   9.5584
  9.018  10.4236
  9.002  11.2167
  8.987  12.0922
  8.971  12.8647
  8.956  13.6166
  8.940  14.3067
  8.925  14.9968
  8.909  15.5427
  8.894  16.0474
  8.879  16.5418
  8.864  17.1083
  8.849  17.6439
  8.834  18.2207
  8.819  18.6945
  8.804  19.1477
  8.789  19.6112
  8.774  20.1468
  8.759  20.4970
  8.744  20.8369
  8.730  21.0944
  8.715  21.2592
  8.700  21.2901
  8.686  21.2798
  8.671  21.1871
  8.657  21.0738
  8.642  20.8575
  8.628  20.6515
  8.614  20.4249
  8.599  20.2086
  8.585  19.9614
  8.571  19.7039
  8.557  19.3331
  8.543  18.8078
  8.529  18.0456
  8.515  17.1083
  8.501  16.1092
  8.487  15.2131
  8.473  14.4303
  8.459  13.7608
  8.445  13.0707
  8.431  12.4115
  8.418  11.6081
  8.404  10.8974
  8.391  10.3103
  8.377   9.8468
  8.363   9.4142
  8.350   9.0743
  8.337   8.6932
  8.323   8.3533
  8.310   7.9104
  8.297   7.3439
  8.283   6.7156
  8.270   6.0976
  8.257   5.4590
  8.244   4.8101
  8.231   4.1612
  8.218   3.6771
  8.205   3.1930
  8.192   2.8016
  8.179   2.5029
  8.166   2.2145
  8.153   1.9261
  8.140   1.7613
  8.128   1.6274
  8.115   1.5347
  8.102   1.3699
  8.090   1.2772
  8.077   1.1948
  8.064   1.1330
  8.052   1.0300
  8.039   0.9888
  8.027   0.9373
  8.015   0.9064
  8.002   0.8137
  7.990   0.8137
  7.978   0.8137
  7.965   0.8034
  7.953   0.7622
  7.941   0.7416
  7.929   0.7210
  7.917   0.7416
  7.905   0.6798
  7.893   0.7210
  7.881   0.7107
  7.869   0.7210
  7.857   0.7107
  7.845   0.7107
  7.833   0.6798
  7.821   0.7107
  7.809   0.7004
  7.798   0.7416
  7.786   0.7931
  7.774   0.7931
  7.763   0.7313
  7.751   0.7828
  7.739   0.8137
  7.728   0.8446
  7.716   0.8549
  7.705   0.8446
  7.694   0.8034
  7.682   0.8549
  7.671   0.8652
  7.659   0.8961
  7.648   0.9167
  7.637   0.9476
  7.626   0.9476
  7.614   0.9785
  7.603   0.9991
  7.592   1.0094
  7.581   0.9682
  7.570   1.0300
  7.559   1.0094
  7.548   1.0197
  7.537   1.0506
  7.526   1.0815
  7.515   1.0712
  7.504   1.1124
  7.493   1.1124
  7.483   1.1330
  7.472   1.1536
  7.461   1.1845
  7.450   1.1845
  7.440   1.2154
  7.429   1.2257
  7.418   1.2978
  7.408   1.3390
  7.397   1.3081
  7.387   1.2978
  7.376   1.3596
  7.366   1.3596
  7.355   1.3802
  7.345   1.3802
  7.334   1.3802
  7.324   1.3905
  7.314   1.4729
  7.303   1.5244
  7.293   1.5553
  7.283   1.5141
  7.273   1.4935
  7.263   1.5450
  7.252   1.6171
  7.242   1.6068
  7.232   1.6377
  7.222   1.6274
  7.212   1.6377
  7.202   1.6171
  7.192   1.6583
  7.182   1.6892
  7.172   1.7510
  7.162   1.7407
  7.152   1.7098
  7.143   1.7304
  7.133   1.7819
  7.123   1.7510
  7.113   1.7304
  7.103   1.7098
  7.094   1.7407
  7.084   1.7819
  7.074   1.8025
  7.065   1.7819
  7.055   1.8231
  7.046   1.8437
  7.036   1.9055
  7.026   1.9467
  7.017   1.9879
  7.007   1.9776
  6.998   1.9776
  6.989   1.9776
  6.979   1.9673
  6.970   1.9776
  6.960   1.9776
  6.951   1.9467
  6.942   1.9982
  6.932   2.0188
  6.923   2.0291
  6.914   2.0085
  6.905   2.0394
  6.896   2.0394
  6.886   2.0188
  6.877   2.0085
  6.868   2.0394
  6.859   2.0188
  6.850   2.0600
  6.841   2.1012
  6.832   2.1424
  6.823   2.1424
  6.814   2.1424
  6.805   2.1321
  6.796   2.1527
  6.787   2.1218
  6.778   2.1218
  6.770   2.1218
  6.761   2.1527
  6.752   2.1733
  6.743   2.2042
  6.734   2.2248
  6.726   2.2557
  6.717   2.2763
  6.708   2.2763
  6.700   2.2660
  6.691   2.2763
  6.682   2.2660
  6.674   2.2763
  6.665   2.2969
  6.657   2.3175
  6.648   2.3175
  6.640   2.3587
  6.631   2.3484
  6.623   2.3690
  6.614   2.3278
  6.606   2.3381
  6.597   2.3484
  6.589   2.3175
  6.581   2.3072
  6.572   2.3175
  6.564   2.3278
  6.556   2.3587
  6.547   2.3381
  6.539   2.3587
  6.531   2.3278
  6.523   2.3484
  6.514   2.3381
  6.506   2.3278
  6.498   2.3484
  6.490   2.3484
  6.482   2.3381
  6.474   2.3175
  6.466   2.3072
  6.458   2.3381
  6.450   2.3278
  6.442   2.3278
  6.434   2.3072
  6.426   2.3278
  6.418   2.3278
  6.410   2.3278
  6.402   2.3072
  6.394   2.3278
  6.386   2.3381
  6.378   2.3587
  6.370   2.3278
  6.363   2.3175
  6.355   2.2763
  6.347   2.2866
  6.339   2.2763
  6.332   2.2454
  6.324   2.2557
  6.316   2.2969
  6.308   2.2969
  6.301   2.2969
  6.293   2.2454
  6.286   2.2557
  6.278   2.2763
  6.270   2.2969
  6.263   2.2763
  6.255   2.2660
  6.248   2.2763
  6.240   2.3175
  6.233   2.3175
  6.225   2.3278
  6.218   2.3175
  6.210   2.3896
  6.203   2.4926
  6.195   2.6059
  6.188   2.6986
  6.181   2.8737
  6.173   3.0797
  6.166   3.2136
  6.159   3.2033
  6.151   2.9561
  6.144   2.5441
  6.137   2.1424
  6.130   1.7716
  6.122   1.5141
  6.115   1.3596
  6.108   1.2978
  6.101   1.2772
  6.094   1.3287
  6.086   1.3493
  6.079   1.4008
  6.072   1.4317
  6.065   1.4523
  6.058   1.4729
  6.051   1.5347
  6.044   1.5965
  6.037   1.5965
  6.030   1.5862
  6.023   1.6274
  6.016   1.6480
  6.009   1.6686
  6.002   1.6789
  5.995   1.6892
  5.988   1.6480
  5.981   1.6583
  5.974   1.6789
  5.967   1.6583
  5.960   1.6274
  5.954   1.6377
  5.947   1.6274
  5.940   1.5965
  5.933   1.5450
  5.926   1.5553
  5.920   1.5862
  5.913   1.6480
  5.906   1.6789
  5.899   1.7510
  5.893   1.8128
  5.886   1.8540
  5.879   1.8746
  5.873   1.9570
  5.866   2.0188
  5.859   2.0394
  5.853   2.1115
  5.846   2.1939
  5.840   2.2351
  5.833   2.2454
  5.827   2.2557
  5.820   2.2969
  5.813   2.3381
  5.807   2.3793
  5.800   2.4205
  5.794   2.4308
  5.788   2.4411
  5.781   2.4720
  5.775   2.4823
  5.768   2.5029
  5.762   2.5338
  5.755   2.6265
  5.749   2.6574
  5.743   2.6677
  5.736   2.7089
  5.730   2.7501
  5.724   2.7810
  5.717   2.8119
  5.711   2.8325
  5.705   2.8737
  5.698   2.9046
  5.692   2.9458
  5.686   2.9973
  5.680   3.0900
  5.674   3.1003
  5.667   3.1209
  5.661   3.1312
  5.655   3.1621
  5.649   3.1621
  5.643   3.2033
  5.637   3.2548
  5.630   3.2857
  5.624   3.2960
  5.618   3.3475
  5.612   3.3784
  5.606   3.4196
  5.600   3.4299
  5.594   3.4608
  5.588   3.5123
  5.582   3.5638
  5.576   3.5535
  5.570   3.5844
  5.564   3.6050
  5.558   3.6359
  5.552   3.6668
  5.546   3.6874
  5.540   3.7389
  5.534   3.8007
  5.528   3.8728
  5.523   3.9552
  5.517   3.9861
  5.511   4.0479
  5.505   4.1200
  5.499   4.1612
  5.493   4.2127
  5.487   4.2436
  5.482   4.3054
  5.476   4.3775
  5.470   4.4393
  5.464   4.5114
  5.459   4.5732
  5.453   4.6453
  5.447   4.7071
  5.441   4.7586
  5.436   4.7792
  5.430   4.8204
  5.424   4.8307
  5.419   4.8410
  5.413   4.8616
  5.407   4.9234
  5.402   4.9852
  5.396   4.9955
  5.390   5.0058
  5.385   5.0264
  5.379   5.0470
  5.374   5.0779
  5.368   5.0882
  5.363   5.0985
  5.357   5.0779
  5.352   5.0779
  5.346   5.1191
  5.341   5.1809
  5.335   5.2118
  5.330   5.2015
  5.324   5.1912
  5.319   5.2530
  5.313   5.2839
  5.308   5.2839
  5.302   5.3045
  5.297   5.3354
  5.291   5.3354
  5.286   5.3457
  5.281   5.3869
  5.275   5.4178
  5.270   5.4178
  5.265   5.4590
  5.259   5.5311
  5.254   5.5414
  5.249   5.5414
  5.243   5.5620
  5.238   5.5723
  5.233   5.5929
  5.227   5.6341
  5.222   5.6341
  5.217   5.6135
  5.212   5.6135
  5.206   5.6135
  5.201   5.6238
  5.196   5.6135
  5.191   5.6238
  5.186   5.5929
  5.180   5.5414
  5.175   5.5414
  5.170   5.5414
  5.165   5.5517
  5.160   5.5311
  5.155   5.5002
  5.150   5.4796
  5.145   5.4693
  5.139   5.4899
  5.134   5.4693
  5.129   5.4384
  5.124   5.4178
  5.119   5.3972
  5.114   5.3766
  5.109   5.3972
  5.104   5.3972
  5.099   5.3766
  5.094   5.3663
  5.089   5.3663
  5.084   5.3766
  5.079   5.3560
  5.074   5.3457
  5.069   5.2942
  5.064   5.2736
  5.059   5.2839
  5.054   5.2942
  5.049   5.2942
  5.044   5.2839
  5.040   5.2942
  5.035   5.3148
  5.030   5.3251
  5.025   5.3251
  5.020   5.3251
  5.015   5.3251
  5.010   5.3148
  5.005   5.3045
  5.001   5.3045
  4.996   5.3148
  4.991   5.3045
  4.986   5.2530
  4.981   5.1912
  4.977   5.1603
  4.972   5.1294
  4.967   5.1294
  4.962   5.1706
  4.958   5.2015
  4.953   5.2324
  4.948   5.2427
  4.943   5.2530
  4.939   5.2324
  4.934   5.2324
  4.929   5.2221
  4.925   5.1809
  4.920   5.1294
  4.915   5.1397
  4.911   5.1500
  4.906   5.1397
  4.901   5.0676
  4.897   5.0058
  4.892   4.9749
  4.888   4.9543
  4.883   4.8822
  4.878   4.8513
  4.874   4.8513
  4.869   4.8513
  4.865   4.8101
  4.860   4.7792
  4.856   4.7277
  4.851   4.6762
  4.846   4.6350
  4.842   4.5938
  4.837   4.5835
  4.833   4.5526
  4.828   4.4908
  4.824   4.4393
  4.819   4.3775
  4.815   4.3672
  4.810   4.3363
  4.806   4.2436
  4.802   4.1509
  4.797   4.0788
  4.793   4.0067
  4.788   3.8934
  4.784   3.7904
  4.779   3.7183
  4.775   3.6153
  4.771   3.5226
  4.766   3.4093
  4.762   3.2857
  4.758   3.1930
  4.753   3.1312
  4.749   3.0385
  4.744   2.9355
  4.740   2.8943
  4.736   2.8222
  4.731   2.7398
  4.727   2.7089
  4.723   2.7192
  4.719   2.6986
  4.714   2.6883
  4.710   2.7089
  4.706   2.6780
  4.701   2.6883
  4.697   2.7192
  4.693   2.7089
  4.689   2.7398
  4.684   2.7707
  4.680   2.7604
  4.676   2.7398
  4.672   2.7501
  4.668   2.7810
  4.663   2.8016
  4.659   2.8119
  4.655   2.8222
  4.651   2.8634
  4.647   2.9149
  4.643   2.9355
  4.638   2.9149
  4.634   2.9149
  4.630   2.9046
  4.626   2.9355
  4.622   2.9252
  4.618   2.9561
  4.614   2.9458
  4.610   2.9252
  4.605   2.9355
  4.601   2.8737
  4.597   2.8222
  4.593   2.8119
  4.589   2.7604
  4.585   2.7398
  4.581   2.7604
  4.577   2.7295
  4.573   2.6986
  4.569   2.6883
  4.565   2.6780
  4.561   2.6574
  4.557   2.6265
  4.553   2.5956
  4.549   2.5029
  4.545   2.4514
  4.541   2.4720
  4.537   2.5029
  4.533   2.5750
  4.529   2.5750
  4.525   2.5956
  4.521   2.5750
  4.517   2.5235
  4.513   2.5441
  4.509   2.5441
  4.505   2.5235
  4.502   2.5029
  4.498   2.5029
  4.494   2.5647
  4.490   2.5338
  4.486   2.5132
  4.482   2.5338
  4.478   2.5338
  4.474   2.5441
  4.470   2.5132
  4.467   2.4514
  4.463   2.4823
  4.459   2.5132
  4.455   2.5441
  4.451   2.5853
  4.447   2.5647
  4.444   2.5544
  4.440   2.6059
  4.436   2.5956
  4.432   2.5956
  4.428   2.6368
  4.425   2.6780
  4.421   2.6780
  4.417   2.7192
  4.413   2.7501
  4.410   2.7707
  4.406   2.7913
  4.402   2.8222
  4.398   2.8634
  4.395   2.8840
  4.391   2.8943
  4.387   2.9252
  4.384   2.9252
  4.380   2.9561
  4.376   2.9767
  4.372   2.9561
  4.369   2.9767
  4.365   3.0385
  4.361   3.0385
  4.358   3.0488
  4.354   3.0591
  4.350   3.1209
  4.347   3.1621
  4.343   3.2033
  4.340   3.2342
  4.336   3.2651
  4.332   3.2754
  4.329   3.3475
  4.325   3.3887
  4.321   3.3887
  4.318   3.4299
  4.314   3.5020
  4.311   3.5741
  4.307   3.6462
  4.304   3.7286
  4.300   3.8007
  4.296   3.8419
  4.293   3.9243
  4.289   3.9964
  4.286   4.0376
  4.282   4.0273
  4.279   4.1303
  4.275   4.3054
  4.272   4.3878
  4.268   4.4084
  4.265   4.4805
  4.261   4.5320
  4.258   4.5732
  4.254   4.6453
  4.251   4.7277
  4.247   4.7792
  4.244   4.8410
  4.240   4.9234
  4.237   4.9749
  4.233   5.0367
  4.230   5.1397
  4.226   5.2530
  4.223   5.3560
  4.219   5.3972
  4.216   5.4590
  4.213   5.5208
  4.209   5.5517
  4.206   5.6238
  4.202   5.7268
  4.199   5.7989
  4.196   5.8607
  4.192   5.9019
  4.189   5.9946
  4.185   6.0976
  4.182   6.1182
  4.179   6.1697
  4.175   6.2418
  4.172   6.2933
  4.169   6.4375
  4.165   6.4684
  4.162   6.5199
  4.159   6.6126
  4.155   6.6744
  4.152   6.7671
  4.149   6.8804
  4.145   6.9319
  4.142   6.9834
  4.139   6.9937
  4.135   7.0349
  4.132   7.1482
  4.129   7.2203
  4.126   7.3130
  4.122   7.4057
  4.119   7.4675
  4.116   7.5190
  4.112   7.5396
  4.109   7.5911
  4.106   7.6735
  4.103   7.8280
  4.099   7.9619
  4.096   8.0443
  4.093   8.0649
  4.090   8.0958
  4.086   8.1576
  4.083   8.2709
  4.080   8.3224
  4.077   8.4151
  4.074   8.5387
  4.070   8.6623
  4.067   8.6829
  4.064   8.7241
  4.061   8.8477
  4.058   8.9610
  4.055   9.0331
  4.051   9.0949
  4.048   9.1567
  4.045   9.2700
  4.042   9.3730
  4.039   9.4863
  4.036   9.5584
  4.032   9.5996
  4.029   9.6923
  4.026   9.7541
  4.023   9.8056
  4.020   9.8777
  4.017   9.9395
  4.014  10.0322
  4.011  10.1249
  4.008  10.1970
  4.004  10.1764
  4.001  10.1661
  3.998  10.1764
  3.995  10.2279
  3.992  10.2485
  3.989  10.2794
  3.986  10.2279
  3.983  10.0837
  3.980   9.9086
  3.977   9.7747
  3.974   9.7232
  3.971   9.6717
  3.968   9.7747
  3.965  10.1146
  3.962  10.2897
  3.959  10.3515
  3.956  10.5060
  3.953  10.7120
  3.950  10.8768
  3.947  11.0416
  3.944  11.1137
  3.941  11.1961
  3.938  11.3300
  3.935  11.3815
  3.932  11.5051
  3.929  11.6596
  3.926  11.6802
  3.923  11.7111
  3.920  11.7729
  3.917  11.9274
  3.914  11.9995
  3.911  12.0510
  3.908  12.1231
  3.905  12.1952
  3.902  12.2364
  3.899  12.2982
  3.896  12.3497
  3.893  12.4424
  3.890  12.4012
  3.887  12.3085
  3.884  12.2158
  3.882  12.1746
  3.879  12.0098
  3.876  11.8244
  3.873  11.7317
  3.870  11.7626
  3.867  11.9686
  3.864  12.2570
  3.861  12.4321
  3.858  12.5866
  3.856  12.7823
  3.853  12.9883
  3.850  13.0295
  3.847  13.0604
  3.844  13.0913
  3.841  13.1222
  3.838  13.1737
  3.836  13.1943
  3.833  13.1634
  3.830  13.2149
  3.827  13.2252
  3.824  13.2355
  3.822  13.2561
  3.819  13.3076
  3.816  13.3591
  3.813  13.3076
  3.810  13.2149
  3.807  13.2252
  3.805  13.2046
  3.802  13.1840
  3.799  13.2046
  3.796  13.2252
  3.794  13.2149
  3.791  13.2149
  3.788  13.2355
  3.785  13.2767
  3.782  13.2355
  3.780  13.2664
  3.777  13.3282
  3.774  13.3591
  3.771  13.3591
  3.769  13.3385
  3.766  13.2973
  3.763  13.3591
  3.761  13.4003
  3.758  13.3488
  3.755  13.3385
  3.752  13.3694
  3.750  13.3179
  3.747  13.2458
  3.744  13.2561
  3.742  13.2973
  3.739  13.2561
  3.736  13.2355
  3.733  13.1943
  3.731  13.1840
  3.728  13.1943
  3.725  13.2046
  3.723  13.1325
  3.720  13.1119
  3.717  13.1531
  3.715  13.1737
  3.712  13.1428
  3.709  13.1531
  3.707  13.1222
  3.704  13.1119
  3.702  13.1222
  3.699  13.1325
  3.696  13.0707
  3.694  12.9883
  3.691  12.9677
  3.688  12.9677
  3.686  12.8853
  3.683  12.8132
  3.680  12.7823
  3.678  12.7617
  3.675  12.7205
  3.673  12.6793
  3.670  12.6484
  3.667  12.6175
  3.665  12.5351
  3.662  12.5351
  3.660  12.5145
  3.657  12.3703
  3.655  12.2261
  3.652  12.2364
  3.649  12.2364
  3.647  12.1437
  3.644  12.0407
  3.642  11.9480
  3.639  11.8656
  3.637  11.8553
  3.634  11.7729
  3.632  11.7008
  3.629  11.6184
  3.626  11.5978
  3.624  11.5669
  3.621  11.5875
  3.619  11.4948
  3.616  11.3609
  3.614  11.2785
  3.611  11.2064
  3.609  11.1034
  3.606  11.0931
  3.604  11.0313
  3.601  10.9386
  3.599  10.9077
  3.596  10.8665
  3.594  10.7326
  3.591  10.6605
  3.589  10.6296
  3.586  10.5678
  3.584  10.4236
  3.581  10.3721
  3.579  10.3515
