Name: Polyhalite K2Ca2Mg(SO4)4 * 2H2O
Type: Mineral
Class: Sulfate
Subclass: None
Particle Size: Unsieved coarse powder
Sample No.: NMNH 92669-4
Owner: Smithsonian Institute, National Museum of Nat. History
Wavelength range: 0.40 - 14.05 um
Origin: Carlsbad, New Mexico

Description: Polyhalite powder from Carlsbad, New Mexico





Measurement: Directional Hemispherical Reflectance
First Column: X
Second Column: Y
X Units: Wavelength (micrometers)
Y Units: Reflectance (percent)
First X Value: 14.05105
Last X Value: 0.40000
Number of X Values: 2756
Additional Information: None

 14.051   2.2866
 14.013   2.2042
 13.975   2.3484
 13.938   2.1836
 13.900   2.2660
 13.863   2.1939
 13.826   2.1012
 13.790   2.0909
 13.753   2.1836
 13.717   2.0909
 13.680   2.1836
 13.644   2.1527
 13.609   2.0909
 13.573   1.9982
 13.538   2.0085
 13.502   2.0291
 13.467   2.1321
 13.432   2.0600
 13.398   2.0703
 13.363   2.0394
 13.329   2.0806
 13.295   2.0085
 13.261   2.0188
 13.227   1.9570
 13.193   1.9055
 13.160   1.8540
 13.126   1.8540
 13.093   1.7510
 13.060   1.7716
 13.027   1.7304
 12.995   1.7407
 12.962   1.5553
 12.930   1.4317
 12.898   1.4111
 12.866   1.4729
 12.834   1.3699
 12.802   1.3081
 12.771   1.2669
 12.739   1.2875
 12.708   1.2360
 12.677   1.3287
 12.646   1.3184
 12.616   1.3287
 12.585   1.3184
 12.554   1.3493
 12.524   1.3287
 12.494   1.4626
 12.464   1.5553
 12.434   1.6583
 12.404   1.6274
 12.375   1.6686
 12.345   1.7613
 12.316   1.9261
 12.287   1.9570
 12.258   1.9673
 12.229   1.9570
 12.200   2.1012
 12.171   2.2351
 12.143   2.4514
 12.115   2.4720
 12.086   2.5132
 12.058   2.5647
 12.030   2.6883
 12.002   2.7089
 11.975   2.7913
 11.947   2.8428
 11.920   2.9870
 11.892   3.0591
 11.865   3.1827
 11.838   3.1930
 11.811   3.2651
 11.784   3.2960
 11.757   3.3887
 11.731   3.4505
 11.704   3.5123
 11.678   3.5535
 11.652   3.6565
 11.626   3.7286
 11.600   3.8728
 11.574   3.9758
 11.548   4.0788
 11.522   4.0479
 11.497   4.0788
 11.471   4.2024
 11.446   4.3157
 11.421   4.3878
 11.396   4.5011
 11.371   4.4702
 11.346   4.5011
 11.321   4.5114
 11.297   4.6453
 11.272   4.6865
 11.248   4.7689
 11.223   4.8204
 11.199   4.8925
 11.175   4.9543
 11.151   5.0367
 11.127   5.0676
 11.103   5.1809
 11.079   5.2633
 11.056   5.3663
 11.032   5.4281
 11.009   5.5311
 10.985   5.5414
 10.962   5.5826
 10.939   5.6650
 10.916   5.7577
 10.893   5.7783
 10.870   5.8916
 10.848   5.9328
 10.825   5.8916
 10.802   5.8710
 10.780   5.9328
 10.758   5.9534
 10.735   6.0049
 10.713   5.9740
 10.691   5.9122
 10.669   5.8710
 10.647   5.8710
 10.625   5.8401
 10.604   5.8298
 10.582   5.7577
 10.560   5.8195
 10.539   5.7886
 10.518   5.7268
 10.496   5.5826
 10.475   5.5517
 10.454   5.5620
 10.433   5.4796
 10.412   5.3663
 10.391   5.3148
 10.370   5.1191
 10.350   5.0882
 10.329   5.0882
 10.309   5.0882
 10.288   5.0779
 10.268   5.0470
 10.247   4.8719
 10.227   4.6247
 10.207   4.3054
 10.187   4.0994
 10.167   3.8522
 10.147   3.5329
 10.127   3.3063
 10.108   3.3372
 10.088   3.3681
 10.068   3.1518
 10.049   2.6677
 10.029   2.6162
 10.010   2.8943
  9.991   3.3372
  9.972   3.7286
  9.952   4.0376
  9.933   4.1715
  9.914   4.3466
  9.895   4.2642
  9.877   4.2230
  9.858   4.0685
  9.839   3.7904
  9.821   3.3784
  9.802   3.3166
  9.783   3.7080
  9.765   4.2333
  9.747   4.4702
  9.728   4.6556
  9.710   4.7483
  9.692   4.8101
  9.674   4.7586
  9.656   4.7277
  9.638   4.7071
  9.620   4.6350
  9.602   4.5423
  9.585   4.6144
  9.567   4.6659
  9.549   4.6247
  9.532   4.5217
  9.514   4.4702
  9.497   4.4599
  9.479   4.4599
  9.462   4.3672
  9.445   4.2848
  9.428   4.2127
  9.411   4.1921
  9.394   4.1715
  9.377   4.2230
  9.360   4.1612
  9.343   4.2539
  9.326   4.4187
  9.309   4.7174
  9.293   5.0676
  9.276   5.4693
  9.259   5.7783
  9.243   5.9946
  9.226   6.1800
  9.210   6.5199
  9.194   6.7362
  9.178   6.9113
  9.161   7.1482
  9.145   7.3645
  9.129   7.5190
  9.113   7.6117
  9.097   7.6529
  9.081   7.7250
  9.065   7.7353
  9.049   7.7250
  9.034   7.6323
  9.018   7.4160
  9.002   6.8907
  8.987   6.2727
  8.971   5.4899
  8.956   4.7174
  8.940   4.0788
  8.925   3.5638
  8.909   3.0797
  8.894   2.9355
  8.879   2.8428
  8.864   2.6677
  8.849   2.6574
  8.834   2.9149
  8.819   3.2754
  8.804   3.8625
  8.789   4.4599
  8.774   5.0573
  8.759   5.4590
  8.744   5.8401
  8.730   6.3242
  8.715   6.8495
  8.700   7.1379
  8.686   7.4469
  8.671   7.7147
  8.657   8.1061
  8.642   8.4563
  8.628   8.7550
  8.614   9.0537
  8.599   9.4348
  8.585   9.7541
  8.571  10.0734
  8.557  10.3412
  8.543  10.4957
  8.529  10.5369
  8.515  10.4957
  8.501  10.3103
  8.487  10.0631
  8.473   9.7541
  8.459   9.4142
  8.445   8.8271
  8.431   8.1988
  8.418   7.8486
  8.404   7.9310
  8.391   7.8692
  8.377   7.5499
  8.363   7.1585
  8.350   6.7671
  8.337   6.3860
  8.323   6.0667
  8.310   5.6959
  8.297   5.4590
  8.283   5.2324
  8.270   5.0985
  8.257   5.0161
  8.244   4.9955
  8.231   5.0264
  8.218   5.0985
  8.205   5.1397
  8.192   5.2324
  8.179   5.3354
  8.166   5.4487
  8.153   5.4796
  8.140   5.5208
  8.128   5.6032
  8.115   5.6959
  8.102   5.7062
  8.090   5.6753
  8.077   5.5105
  8.064   5.1603
  8.052   4.6350
  8.039   4.0582
  8.027   3.4711
  8.015   2.9870
  8.002   2.5544
  7.990   2.2042
  7.978   1.9055
  7.965   1.6171
  7.953   1.3802
  7.941   1.2669
  7.929   1.1021
  7.917   0.9579
  7.905   0.8343
  7.893   0.8034
  7.881   0.7107
  7.869   0.6180
  7.857   0.5562
  7.845   0.5871
  7.833   0.5562
  7.821   0.5562
  7.809   0.5150
  7.798   0.5047
  7.786   0.5047
  7.774   0.5253
  7.763   0.4841
  7.751   0.4841
  7.739   0.4841
  7.728   0.5047
  7.716   0.4738
  7.705   0.5356
  7.694   0.5768
  7.682   0.5253
  7.671   0.4841
  7.659   0.5562
  7.648   0.5665
  7.637   0.6180
  7.626   0.5974
  7.614   0.5665
  7.603   0.5150
  7.592   0.5562
  7.581   0.6489
  7.570   0.7519
  7.559   0.6798
  7.548   0.6489
  7.537   0.6798
  7.526   0.7519
  7.515   0.7725
  7.504   0.7416
  7.493   0.7107
  7.483   0.7931
  7.472   0.8343
  7.461   0.8652
  7.450   0.8240
  7.440   0.8549
  7.429   0.8858
  7.418   0.9579
  7.408   1.0094
  7.397   1.0197
  7.387   0.9682
  7.376   1.0300
  7.366   1.0403
  7.355   1.0094
  7.345   1.0197
  7.334   1.0815
  7.324   1.1124
  7.314   1.1227
  7.303   1.1330
  7.293   1.1845
  7.283   1.2669
  7.273   1.3184
  7.263   1.3081
  7.252   1.3493
  7.242   1.3802
  7.232   1.4214
  7.222   1.3699
  7.212   1.3802
  7.202   1.4111
  7.192   1.4626
  7.182   1.4935
  7.172   1.5141
  7.162   1.4935
  7.152   1.5347
  7.143   1.6377
  7.133   1.7201
  7.123   1.7098
  7.113   1.6892
  7.103   1.6892
  7.094   1.7613
  7.084   1.7922
  7.074   1.8746
  7.065   1.8952
  7.055   1.8849
  7.046   1.8334
  7.036   1.9158
  7.026   1.9982
  7.017   2.0291
  7.007   2.0600
  6.998   2.1424
  6.989   2.1527
  6.979   2.1424
  6.970   2.1424
  6.960   2.2042
  6.951   2.2866
  6.942   2.3587
  6.932   2.3381
  6.923   2.3484
  6.914   2.3690
  6.905   2.4411
  6.896   2.4823
  6.886   2.5441
  6.877   2.5544
  6.868   2.5029
  6.859   2.4720
  6.850   2.5853
  6.841   2.6574
  6.832   2.7089
  6.823   2.7295
  6.814   2.7398
  6.805   2.7295
  6.796   2.8222
  6.787   2.8943
  6.778   2.9252
  6.770   2.8737
  6.761   2.8840
  6.752   2.9046
  6.743   2.9870
  6.734   3.0900
  6.726   3.1209
  6.717   3.1209
  6.708   3.1930
  6.700   3.2445
  6.691   3.2960
  6.682   3.2342
  6.674   3.2445
  6.665   3.2754
  6.657   3.3475
  6.648   3.3990
  6.640   3.4299
  6.631   3.4402
  6.623   3.4608
  6.614   3.4299
  6.606   3.4505
  6.597   3.5020
  6.589   3.5741
  6.581   3.5741
  6.572   3.5844
  6.564   3.6565
  6.556   3.7183
  6.547   3.6565
  6.539   3.6668
  6.531   3.7286
  6.523   3.7801
  6.514   3.7595
  6.506   3.7492
  6.498   3.7595
  6.490   3.8007
  6.482   3.8007
  6.474   3.7801
  6.466   3.7595
  6.458   3.7698
  6.450   3.7595
  6.442   3.7801
  6.434   3.7801
  6.426   3.7698
  6.418   3.7286
  6.410   3.7595
  6.402   3.8522
  6.394   3.7595
  6.386   3.7080
  6.378   3.7080
  6.370   3.6359
  6.363   3.5947
  6.355   3.5535
  6.347   3.5535
  6.339   3.5432
  6.332   3.4917
  6.324   3.4196
  6.316   3.4093
  6.308   3.3681
  6.301   3.3372
  6.293   3.3372
  6.286   3.2960
  6.278   3.2136
  6.270   3.1518
  6.263   3.0282
  6.255   2.9767
  6.248   2.9767
  6.240   2.9458
  6.233   2.7913
  6.225   2.6883
  6.218   2.6059
  6.210   2.5132
  6.203   2.3999
  6.195   2.3072
  6.188   2.2248
  6.181   2.1424
  6.173   2.0291
  6.166   1.9673
  6.159   1.9467
  6.151   1.8849
  6.144   1.7613
  6.137   1.6789
  6.130   1.5862
  6.122   1.5244
  6.115   1.5141
  6.108   1.5244
  6.101   1.4729
  6.094   1.4420
  6.086   1.4832
  6.079   1.5038
  6.072   1.5347
  6.065   1.5656
  6.058   1.6377
  6.051   1.7098
  6.044   1.7819
  6.037   1.9158
  6.030   2.0600
  6.023   2.2351
  6.016   2.3484
  6.009   2.4823
  6.002   2.6368
  5.995   2.8016
  5.988   2.9664
  5.981   3.1827
  5.974   3.2857
  5.967   3.4505
  5.960   3.6668
  5.954   3.9037
  5.947   4.0994
  5.940   4.3054
  5.933   4.5217
  5.926   4.7174
  5.920   4.8616
  5.913   5.0676
  5.906   5.3045
  5.899   5.4899
  5.893   5.6238
  5.886   5.7886
  5.879   5.9740
  5.873   6.2315
  5.866   6.4272
  5.859   6.6126
  5.853   6.7259
  5.846   6.8495
  5.840   7.0349
  5.833   7.2306
  5.827   7.3748
  5.820   7.5190
  5.813   7.6323
  5.807   7.7662
  5.800   7.8383
  5.794   7.9619
  5.788   8.1164
  5.781   8.2606
  5.775   8.3533
  5.768   8.4975
  5.762   8.6108
  5.755   8.6623
  5.749   8.7653
  5.743   8.9095
  5.736   8.9610
  5.730   9.0640
  5.724   9.1876
  5.717   9.3009
  5.711   9.3833
  5.705   9.4554
  5.698   9.5584
  5.692   9.6717
  5.686   9.7026
  5.680   9.7953
  5.674   9.9086
  5.667  10.0116
  5.661  10.0631
  5.655  10.1352
  5.649  10.2382
  5.643  10.2794
  5.637  10.2691
  5.630  10.3618
  5.624  10.4545
  5.618  10.5163
  5.612  10.5884
  5.606  10.6708
  5.600  10.7017
  5.594  10.7429
  5.588  10.7738
  5.582  10.8562
  5.576  10.9283
  5.570  10.9901
  5.564  11.0313
  5.558  11.0725
  5.552  11.0725
  5.546  11.0931
  5.540  11.1240
  5.534  11.1858
  5.528  11.1858
  5.523  11.1858
  5.517  11.1858
  5.511  11.2270
  5.505  11.2476
  5.499  11.2785
  5.493  11.3094
  5.487  11.3403
  5.482  11.3815
  5.476  11.3918
  5.470  11.3815
  5.464  11.4227
  5.459  11.4536
  5.453  11.4536
  5.447  11.4845
  5.441  11.5463
  5.436  11.5875
  5.430  11.6390
  5.424  11.6699
  5.419  11.7008
  5.413  11.7729
  5.407  11.8347
  5.402  11.8553
  5.396  11.9274
  5.390  11.9995
  5.385  12.0201
  5.379  12.0613
  5.374  12.1643
  5.368  12.1952
  5.363  12.2364
  5.357  12.2879
  5.352  12.3188
  5.346  12.3394
  5.341  12.3703
  5.335  12.4424
  5.330  12.5042
  5.324  12.5248
  5.319  12.5454
  5.313  12.5660
  5.308  12.5763
  5.302  12.5969
  5.297  12.6381
  5.291  12.6381
  5.286  12.6690
  5.281  12.6999
  5.275  12.7102
  5.270  12.7102
  5.265  12.6999
  5.259  12.6587
  5.254  12.6999
  5.249  12.7617
  5.243  12.8029
  5.238  12.7926
  5.233  12.7823
  5.227  12.7411
  5.222  12.7514
  5.217  12.7514
  5.212  12.7514
  5.206  12.7617
  5.201  12.7514
  5.196  12.7205
  5.191  12.7308
  5.186  12.7205
  5.180  12.6793
  5.175  12.6381
  5.170  12.6587
  5.165  12.6690
  5.160  12.6587
  5.155  12.6072
  5.150  12.5454
  5.145  12.4836
  5.139  12.4527
  5.134  12.4218
  5.129  12.3600
  5.124  12.2776
  5.119  12.2158
  5.114  12.1437
  5.109  12.0716
  5.104  11.9274
  5.099  11.7317
  5.094  11.5257
  5.089  11.2888
  5.084  10.9489
  5.079  10.4751
  5.074   9.7953
  5.069   8.9713
  5.064   8.1164
  5.059   7.6838
  5.054   8.0752
  5.049   9.0743
  5.044  10.0219
  5.040  10.7532
  5.035  11.2785
  5.030  11.6802
  5.025  11.9480
  5.020  12.0922
  5.015  12.2055
  5.010  12.2364
  5.005  12.2158
  5.001  12.2158
  4.996  12.2364
  4.991  12.2158
  4.986  12.1231
  4.981  12.0613
  4.977  12.0407
  4.972  12.0304
  4.967  12.0098
  4.962  12.0098
  4.958  11.9789
  4.953  11.9068
  4.948  11.7935
  4.943  11.6596
  4.939  11.4433
  4.934  11.1961
  4.929  10.8871
  4.925  10.5781
  4.920  10.3412
  4.915  10.2176
  4.911  10.2279
  4.906  10.3206
  4.901  10.2794
  4.897  10.0940
  4.892   9.8365
  4.888   9.5172
  4.883   9.1361
  4.878   8.6726
  4.874   8.1885
  4.869   7.6323
  4.865   7.0967
  4.860   6.6847
  4.856   6.4375
  4.851   6.4478
  4.846   6.5817
  4.842   6.7671
  4.837   6.9937
  4.833   7.1688
  4.828   7.2821
  4.824   7.3439
  4.819   7.3645
  4.815   7.3748
  4.810   7.3645
  4.806   7.2409
  4.802   7.1070
  4.797   7.0040
  4.793   6.9216
  4.788   6.9010
  4.784   6.9422
  4.779   7.0040
  4.775   6.9937
  4.771   6.9731
  4.766   6.9628
  4.762   6.9113
  4.758   6.8289
  4.753   6.7877
  4.749   6.7362
  4.744   6.6744
  4.740   6.5817
  4.736   6.4169
  4.731   6.2830
  4.727   6.1491
  4.723   5.9534
  4.719   5.7577
  4.714   5.6959
  4.710   5.7371
  4.706   5.7783
  4.701   5.8298
  4.697   5.8195
  4.693   5.7989
  4.689   5.7886
  4.684   5.7165
  4.680   5.6650
  4.676   5.6341
  4.672   5.5105
  4.668   5.3457
  4.663   5.2427
  4.659   5.2118
  4.655   5.2427
  4.651   5.2118
  4.647   5.1912
  4.643   5.2118
  4.638   5.2221
  4.634   5.2015
  4.630   5.2427
  4.626   5.3457
  4.622   5.4281
  4.618   5.5002
  4.614   5.6135
  4.610   5.6444
  4.605   5.6547
  4.601   5.7165
  4.597   5.7989
  4.593   5.7680
  4.589   5.7680
  4.585   5.8195
  4.581   5.9019
  4.577   5.9534
  4.573   5.9740
  4.569   5.9637
  4.565   6.0255
  4.561   6.0770
  4.557   6.0461
  4.553   6.0255
  4.549   6.0152
  4.545   6.0152
  4.541   6.0255
  4.537   5.9946
  4.533   5.9328
  4.529   5.8813
  4.525   5.8401
  4.521   5.9019
  4.517   5.9946
  4.513   6.0770
  4.509   6.1594
  4.505   6.2315
  4.502   6.2727
  4.498   6.3139
  4.494   6.3551
  4.490   6.3345
  4.486   6.3860
  4.482   6.4169
  4.478   6.4375
  4.474   6.4684
  4.470   6.4581
  4.467   6.4272
  4.463   6.4375
  4.459   6.4581
  4.455   6.4787
  4.451   6.5096
  4.447   6.5405
  4.444   6.5817
  4.440   6.6847
  4.436   6.7774
  4.432   6.9010
  4.428   6.9731
  4.425   6.9937
  4.421   7.0658
  4.417   7.1894
  4.413   7.2615
  4.410   7.3645
  4.406   7.4572
  4.402   7.5602
  4.398   7.6220
  4.395   7.6323
  4.391   7.6220
  4.387   7.6220
  4.384   7.6117
  4.380   7.6632
  4.376   7.7765
  4.372   7.7353
  4.369   7.6632
  4.365   7.6220
  4.361   7.5911
  4.358   7.5293
  4.354   7.5087
  4.350   7.5396
  4.347   7.5911
  4.343   7.6220
  4.340   7.6426
  4.336   7.7147
  4.332   7.7559
  4.329   7.7456
  4.325   7.7559
  4.321   7.7971
  4.318   7.7765
  4.314   7.7353
  4.311   7.7456
  4.307   7.7662
  4.304   7.7971
  4.300   7.8486
  4.296   7.9516
  4.293   8.0340
  4.289   8.0546
  4.286   8.1164
  4.282   8.2503
  4.279   8.4357
  4.275   8.4048
  4.272   8.3842
  4.268   8.5181
  4.265   8.5696
  4.261   8.6005
  4.258   8.6726
  4.254   8.7138
  4.251   8.7550
  4.247   8.7962
  4.244   8.9095
  4.240   9.0537
  4.237   9.1464
  4.233   9.1670
  4.230   9.1567
  4.226   9.2391
  4.223   9.2906
  4.219   9.2185
  4.216   9.2185
  4.213   9.2185
  4.209   9.1979
  4.206   9.2597
  4.202   9.3936
  4.199   9.4863
  4.196   9.5378
  4.192   9.5996
  4.189   9.6511
  4.185   9.7026
  4.182   9.7850
  4.179   9.9189
  4.175  10.0116
  4.172  10.0631
  4.169  10.1043
  4.165  10.1970
  4.162  10.3206
  4.159  10.3927
  4.155  10.4854
  4.152  10.5781
  4.149  10.5884
  4.145  10.5678
  4.142  10.5678
  4.139  10.5266
  4.135  10.4854
  4.132  10.4133
  4.129  10.3515
  4.126  10.2588
  4.122  10.1867
  4.119  10.1043
  4.116   9.9910
  4.112   9.8468
  4.109   9.6511
  4.106   9.4554
  4.103   9.2700
  4.099   9.1773
  4.096   9.1258
  4.093   8.9610
  4.090   8.7756
  4.086   8.6211
  4.083   8.5387
  4.080   8.4872
  4.077   8.4151
  4.074   8.3739
  4.070   8.4357
  4.067   8.3945
  4.064   8.2709
  4.061   8.2709
  4.058   8.3945
  4.055   8.4666
  4.051   8.5181
  4.048   8.5902
  4.045   8.6417
  4.042   8.7138
  4.039   8.9198
  4.036   9.1464
  4.032   9.2803
  4.029   9.4657
  4.026   9.7438
  4.023   9.9807
  4.020  10.1764
  4.017  10.3309
  4.014  10.5266
  4.011  10.7738
  4.008  11.0107
  4.004  11.1858
  4.001  11.4124
  3.998  11.5875
  3.995  11.7214
  3.992  11.9583
  3.989  12.2570
  3.986  12.4836
  3.983  12.6999
  3.980  12.8235
  3.977  12.9677
  3.974  13.1428
  3.971  13.3076
  3.968  13.4209
  3.965  13.5342
  3.962  13.6063
  3.959  13.7093
  3.956  13.8123
  3.953  13.9256
  3.950  13.9668
  3.947  13.9565
  3.944  13.9359
  3.941  14.0183
  3.938  14.2037
  3.935  14.4303
  3.932  14.6878
  3.929  14.7908
  3.926  14.9453
  3.923  15.0483
  3.920  15.0483
  3.917  15.1513
  3.914  15.2646
  3.911  15.4191
  3.908  15.5427
  3.905  15.5530
  3.902  15.5633
  3.899  15.6869
  3.896  15.7590
  3.893  15.7899
  3.890  15.8517
  3.887  15.9135
  3.884  15.9135
  3.882  15.9650
  3.879  16.1298
  3.876  16.3049
  3.873  16.2740
  3.870  16.2637
  3.867  16.2843
  3.864  16.3770
  3.861  16.5315
  3.858  16.6345
  3.856  16.5933
  3.853  16.6036
  3.850  16.7169
  3.847  16.7684
  3.844  16.7890
  3.841  16.8508
  3.838  16.9126
  3.836  16.9950
  3.833  17.0671
  3.830  17.1598
  3.827  17.2628
  3.824  17.2937
  3.822  17.3143
  3.819  17.3864
  3.816  17.4482
  3.813  17.4070
  3.810  17.4276
  3.807  17.5821
  3.805  17.6027
  3.802  17.5306
  3.799  17.6336
  3.796  17.7572
  3.794  17.6954
  3.791  17.6748
  3.788  17.7057
  3.785  17.7263
  3.782  17.7881
  3.780  17.8293
  3.777  17.8396
  3.774  17.8190
  3.771  17.8087
  3.769  17.9220
  3.766  17.9735
  3.763  17.9838
  3.761  17.9323
  3.758  17.8396
  3.755  17.8190
  3.752  17.9220
  3.750  17.9323
  3.747  17.9632
  3.744  17.9632
  3.742  17.9220
  3.739  17.8602
  3.736  17.9014
  3.733  17.9632
  3.731  17.9529
  3.728  18.0044
  3.725  18.0559
  3.723  17.9838
  3.720  17.9220
  3.717  17.9220
  3.715  18.0147
  3.712  18.0662
  3.709  18.0559
  3.707  18.0044
  3.704  17.9220
  3.702  17.9220
  3.699  17.9117
  3.696  17.8602
  3.694  17.8808
  3.691  17.9014
  3.688  17.8499
  3.686  17.7984
  3.683  17.8087
  3.680  17.7675
  3.678  17.6851
  3.675  17.5924
  3.673  17.5924
  3.670  17.6130
  3.667  17.6851
  3.665  17.7160
  3.662  17.7263
  3.660  17.7675
  3.657  17.7778
  3.655  17.6954
  3.652  17.6439
  3.649  17.6027
  3.647  17.6027
  3.644  17.6233
  3.642  17.5409
  3.639  17.4791
  3.637  17.4482
  3.634  17.4276
  3.632  17.3555
  3.629  17.3143
  3.626  17.3143
  3.624  17.2422
  3.621  17.1907
  3.619  17.1701
  3.616  17.1083
  3.614  17.0465
  3.611  16.9950
  3.609  16.9023
  3.606  16.8405
  3.604  16.6860
  3.601  16.6345
  3.599  16.5727
  3.596  16.4594
  3.594  16.3667
  3.591  16.3255
  3.589  16.2019
