Name: Granite
Type: Rocks
Class: Igneous
Subclass: Felsic
Particle Size: Solid
Sample No.: Granite.H2
Owner: JHU
Wavelength range: All
Origin: From Santa Rita Mountains, Arizona via Smithsonian (Cat. No. 
NMNH 113640-17)
Description: A gray, medium-grained rock consisting of white 
feldspar grains, some of which contain red or pinkish cores, quartz, and 
minor biotite. Some of the feldspar appears to be perthitic.



Measurement: Directional (10 degree) hemispherical reflectance
First Column: X
Second Column: Y
X Units: Wavelength (micrometers)
Y Units: Reflectance (percent)
First X Value: 14.0112
Last X Value: 0.4000
Number of X Values: 2844
Additional information: granit2a.txt

14.0112	5.9681
13.9734	5.5912
13.9359	5.5284
13.8985	6.8672
13.8614	7.4194
13.8244	7.6237
13.7876	7.2384
13.7511	6.2166
13.7147	5.8940
13.6785	5.6709
13.6425	4.9992
13.6067	4.3547
13.5711	4.3547
13.5356	3.4200
13.5004	3.0665
13.4653	3.4021
13.4304	3.7270
13.3957	4.0312
13.3612	4.3265
13.3269	4.7439
13.2927	4.9181
13.2587	4.8902
13.2249	4.7628
13.1912	4.9690
13.1577	5.6194
13.1244	5.9020
13.0913	5.9376
13.0583	6.1859
13.0255	6.3239
12.9929	6.5761
12.9604	6.7532
12.9281	6.8651
12.8959	7.2829
12.8639	7.8421
12.8321	8.1851
12.8004	8.1249
12.7688	7.9683
12.7375	7.6167
12.7063	6.9106
12.6752	6.1950
12.6443	5.6049
12.6135	5.5008
12.5829	5.8207
12.5524	6.3283
12.5221	6.7950
12.4919	7.0500
12.4619	6.8535
12.4320	6.2995
12.4023	5.6133
12.3727	4.6228
12.3432	3.6112
12.3139	3.1621
12.2847	3.0342
12.2557	2.9590
12.2268	3.0919
12.1980	3.2384
12.1694	3.4502
12.1409	3.5862
12.1125	3.6875
12.0843	3.8292
12.0562	3.9145
12.0282	3.9485
12.0003	3.9900
11.9726	4.1519
11.9450	4.3502
11.9176	4.4436
11.8903	4.3828
11.8631	4.4104
11.8360	4.5745
11.8090	4.7402
11.7822	4.8607
11.7555	4.9779
11.7289	5.0431
11.7024	5.0845
11.6760	5.2218
11.6498	5.3979
11.6237	5.5270
11.5977	5.6460
11.5718	5.7468
11.5460	5.8031
11.5203	5.9161
11.4948	6.0021
11.4694	6.0647
11.4440	6.1256
11.4188	6.2062
11.3937	6.2615
11.3688	6.2578
11.3439	6.3255
11.3191	6.4455
11.2944	6.5231
11.2699	6.5580
11.2455	6.5930
11.2211	6.6872
11.1969	6.7678
11.1727	6.8477
11.1487	6.9400
11.1248	7.0784
11.1010	7.2075
11.0773	7.3226
11.0536	7.4184
11.0301	7.5293
11.0067	7.6971
10.9834	7.8537
10.9602	7.9465
10.9370	7.9844
10.9140	8.0862
10.8911	8.2075
10.8682	8.2643
10.8455	8.3346
10.8229	8.4093
10.8003	8.4567
10.7779	8.5596
10.7555	8.6332
10.7332	8.7145
10.7111	8.8272
10.6890	8.9506
10.6670	9.0574
10.6451	9.2051
10.6233	9.3324
10.6015	9.4741
10.5799	9.6452
10.5584	9.8384
10.5369	10.0308
10.5155	10.2293
10.4942	10.4205
10.4730	10.6577
10.4519	10.9190
10.4309	11.1644
10.4099	11.4703
10.3891	11.7670
10.3683	12.0675
10.3476	12.3953
10.3270	12.7275
10.3065	13.0929
10.2860	13.5059
10.2656	13.9096
10.2454	14.3339
10.2251	14.7623
10.2050	15.1790
10.1850	15.6194
10.1650	16.1098
10.1451	16.5719
10.1253	17.0247
10.1056	17.5408
10.0859	18.0735
10.0663	18.6007
10.0468	19.1114
10.0274	19.6153
10.0080	20.1688
9.9887	20.7487
9.9695	21.3088
9.9504	21.8360
9.9313	22.3064
9.9123	22.6551
9.8934	22.8897
9.8746	23.0735
9.8558	23.1524
9.8371	23.1355
9.8185	23.0784
9.7999	23.0864
9.7814	23.2405
9.7630	23.5394
9.7447	23.9641
9.7264	24.5435
9.7082	25.2072
9.6900	25.7293
9.6719	26.1892
9.6539	26.8422
9.6360	27.3698
9.6181	27.6934
9.6003	27.9393
9.5825	28.1939
9.5649	28.5067
9.5472	28.7903
9.5297	29.0484
9.5122	29.2760
9.4948	29.4820
9.4774	29.8600
9.4601	30.3501
9.4429	30.7935
9.4257	31.2168
9.4086	31.6747
9.3916	32.2646
9.3746	33.0805
9.3577	33.9100
9.3408	34.6836
9.3240	35.3181
9.3073	35.7615
9.2906	36.0747
9.2740	36.2165
9.2574	36.2230
9.2409	36.2462
9.2245	36.1981
9.2081	36.0581
9.1918	35.9111
9.1755	35.7632
9.1593	35.5500
9.1431	35.2628
9.1270	34.8960
9.1110	34.4939
9.0950	34.1174
9.0791	33.7567
9.0632	33.4098
9.0474	33.1612
9.0316	32.8675
9.0159	32.5623
9.0003	32.4072
8.9847	32.3617
8.9691	32.3549
8.9536	32.4672
8.9382	32.6146
8.9228	32.8061
8.9075	33.0301
8.8922	33.2896
8.8770	33.5472
8.8618	33.8015
8.8467	34.0713
8.8316	34.3236
8.8166	34.4872
8.8016	34.5660
8.7867	34.6181
8.7718	34.6643
8.7570	34.6885
8.7422	34.6370
8.7275	34.5137
8.7129	34.3103
8.6982	33.9222
8.6837	33.2804
8.6692	32.2396
8.6547	30.6901
8.6403	29.0308
8.6259	28.3166
8.6116	29.1576
8.5973	30.8617
8.5830	32.3617
8.5688	33.2732
8.5547	33.7596
8.5406	33.9761
8.5266	34.0043
8.5126	33.9731
8.4986	33.8385
8.4847	33.6484
8.4708	33.4586
8.4570	33.2381
8.4432	33.0114
8.4295	32.7566
8.4158	32.4526
8.4022	32.0964
8.3886	31.7188
8.3750	31.2346
8.3615	30.7134
8.3481	30.3196
8.3347	29.7477
8.3213	29.0988
8.3079	28.4462
8.2946	27.8036
8.2814	27.1898
8.2682	26.5565
8.2550	25.9064
8.2419	25.2644
8.2288	24.5915
8.2158	23.8666
8.2028	23.1075
8.1898	22.2831
8.1769	21.3766
8.1640	20.3664
8.1512	19.2205
8.1384	17.9723
8.1256	16.6999
8.1129	15.4389
8.1002	14.2467
8.0876	13.1540
8.0750	12.1000
8.0624	11.1204
8.0499	10.2743
8.0374	9.4771
8.0250	8.7051
8.0126	8.0454
8.0002	7.4852
7.9879	6.8784
7.9756	6.2564
7.9634	5.7155
7.9512	5.1968
7.9390	4.7006
7.9268	4.2535
7.9147	3.8574
7.9027	3.5025
7.8906	3.2075
7.8786	2.9044
7.8667	2.6268
7.8548	2.4044
7.8429	2.2348
7.8310	2.0628
7.8192	1.9029
7.8075	1.7789
7.7957	1.7016
7.7840	1.6198
7.7723	1.5202
7.7607	1.4138
7.7491	1.3524
7.7375	1.2759
7.7260	1.1990
7.7145	1.1405
7.7031	1.0999
7.6916	1.0528
7.6802	1.0118
7.6689	0.9389
7.6575	0.8538
7.6462	0.8501
7.6350	0.8290
7.6238	0.7828
7.6126	0.7781
7.6014	0.7709
7.5903	0.7259
7.5792	0.6659
7.5681	0.6375
7.5571	0.6342
7.5461	0.6291
7.5351	0.6136
7.5242	0.6033
7.5133	0.5953
7.5024	0.5761
7.4916	0.5634
7.4807	0.5873
7.4700	0.6099
7.4592	0.6239
7.4485	0.6239
7.4378	0.6324
7.4272	0.6468
7.4165	0.6748
7.4059	0.6797
7.3954	0.6790
7.3848	0.7008
7.3743	0.7226
7.3639	0.7460
7.3534	0.7467
7.3430	0.7259
7.3326	0.7169
7.3223	0.7068
7.3119	0.7118
7.3016	0.7052
7.2914	0.7064
7.2811	0.7207
7.2709	0.7437
7.2607	0.7425
7.2506	0.7374
7.2404	0.7462
7.2303	0.7650
7.2203	0.7903
7.2102	0.8029
7.2002	0.8013
7.1902	0.8290
7.1803	0.8672
7.1703	0.8894
7.1604	0.9150
7.1506	0.9296
7.1407	0.9598
7.1309	1.0005
7.1211	1.0239
7.1113	1.0186
7.1016	1.0289
7.0919	1.0561
7.0822	1.0641
7.0725	1.0732
7.0629	1.0779
7.0533	1.0594
7.0437	1.0605
7.0341	1.0758
7.0246	1.0699
7.0151	1.0781
7.0056	1.0781
6.9962	1.0764
6.9867	1.0901
6.9773	1.1062
6.9679	1.1078
6.9586	1.1280
6.9493	1.1480
6.9400	1.1637
6.9307	1.1960
6.9214	1.1988
6.9122	1.1993
6.9030	1.2307
6.8938	1.2610
6.8847	1.2639
6.8755	1.2701
6.8664	1.2649
6.8573	1.2729
6.8483	1.2839
6.8393	1.2921
6.8302	1.3020
6.8213	1.2878
6.8123	1.2780
6.8034	1.2457
6.7944	1.2278
6.7855	1.2522
6.7767	1.2701
6.7678	1.2748
6.7590	1.2841
6.7502	1.3055
6.7414	1.3057
6.7327	1.2925
6.7239	1.3188
6.7152	1.3530
6.7065	1.3767
6.6979	1.3982
6.6892	1.4065
6.6806	1.4213
6.6720	1.4606
6.6634	1.4724
6.6549	1.4683
6.6464	1.4717
6.6378	1.4564
6.6294	1.4482
6.6209	1.4604
6.6124	1.4984
6.6040	1.5094
6.5956	1.4885
6.5872	1.4721
6.5789	1.4486
6.5705	1.4582
6.5622	1.4681
6.5539	1.4730
6.5456	1.4852
6.5374	1.4834
6.5292	1.4733
6.5209	1.4831
6.5128	1.5042
6.5046	1.5338
6.4964	1.5539
6.4883	1.5867
6.4802	1.5987
6.4721	1.5886
6.4640	1.6296
6.4560	1.6598
6.4480	1.6605
6.4399	1.6572
6.4320	1.6643
6.4240	1.6737
6.4160	1.6579
6.4081	1.6467
6.4002	1.6434
6.3923	1.6327
6.3844	1.6249
6.3766	1.6148
6.3687	1.6067
6.3609	1.6083
6.3531	1.6099
6.3454	1.6143
6.3376	1.6039
6.3299	1.5928
6.3221	1.5966
6.3144	1.6218
6.3068	1.6348
6.2991	1.6364
6.2914	1.6451
6.2838	1.6504
6.2762	1.6629
6.2686	1.6706
6.2611	1.6807
6.2535	1.6964
6.2460	1.6990
6.2385	1.6814
6.2310	1.6894
6.2235	1.6821
6.2160	1.6577
6.2086	1.6528
6.2011	1.6605
6.1937	1.6608
6.1863	1.6618
6.1790	1.6575
6.1716	1.6579
6.1643	1.6718
6.1570	1.6589
6.1496	1.6577
6.1424	1.6873
6.1351	1.6933
6.1278	1.6722
6.1206	1.7044
6.1134	1.7306
6.1062	1.7538
6.0990	1.7953
6.0918	1.8333
6.0847	1.8363
6.0776	1.8431
6.0704	1.8558
6.0633	1.8551
6.0563	1.8504
6.0492	1.8581
6.0421	1.8501
6.0351	1.8652
6.0281	1.8795
6.0211	1.8443
6.0141	1.8342
6.0071	1.8514
6.0002	1.8504
5.9932	1.8543
5.9863	1.8574
5.9794	1.8387
5.9725	1.8490
5.9657	1.8782
5.9588	1.8984
5.9520	1.9003
5.9451	1.8961
5.9383	1.8949
5.9315	1.9097
5.9247	1.9177
5.9180	1.9289
5.9112	1.9423
5.9045	1.9716
5.8978	1.9865
5.8911	1.9894
5.8844	2.0076
5.8777	2.0151
5.8711	1.9903
5.8644	1.9753
5.8578	1.9814
5.8512	1.9957
5.8446	1.9955
5.8380	2.0184
5.8314	2.0322
5.8249	2.0398
5.8184	2.0482
5.8118	2.0527
5.8053	2.0384
5.7988	2.0377
5.7923	2.0655
5.7859	2.0818
5.7794	2.0820
5.7730	2.1037
5.7666	2.1377
5.7602	2.1530
5.7538	2.1577
5.7474	2.1701
5.7410	2.1712
5.7347	2.1539
5.7283	2.1490
5.7220	2.1787
5.7157	2.1820
5.7094	2.1670
5.7031	2.1684
5.6969	2.1851
5.6906	2.1870
5.6844	2.1595
5.6782	2.1506
5.6719	2.1663
5.6657	2.1736
5.6596	2.1560
5.6534	2.1398
5.6472	2.1288
5.6411	2.1457
5.6349	2.1616
5.6288	2.1567
5.6227	2.1438
5.6166	2.1438
5.6106	2.1516
5.6045	2.1639
5.5984	2.1712
5.5924	2.1682
5.5864	2.1712
5.5804	2.1977
5.5744	2.1853
5.5684	2.1610
5.5624	2.1755
5.5564	2.1900
5.5505	2.2146
5.5445	2.2188
5.5386	2.2101
5.5327	2.2298
5.5268	2.2514
5.5209	2.2641
5.5151	2.2823
5.5092	2.3107
5.5033	2.3247
5.4975	2.3218
5.4917	2.3351
5.4859	2.3491
5.4801	2.3522
5.4743	2.3681
5.4685	2.4057
5.4628	2.4372
5.4570	2.4527
5.4513	2.4447
5.4455	2.4434
5.4398	2.4696
5.4341	2.4774
5.4284	2.4621
5.4228	2.4420
5.4171	2.4516
5.4114	2.4839
5.4058	2.4919
5.4002	2.4820
5.3945	2.4825
5.3889	2.4778
5.3833	2.4710
5.3778	2.4785
5.3722	2.4797
5.3666	2.4907
5.3611	2.5003
5.3555	2.4878
5.3500	2.4829
5.3445	2.5059
5.3390	2.5106
5.3335	2.5114
5.3280	2.5324
5.3225	2.5406
5.3171	2.5343
5.3116	2.5446
5.3062	2.5680
5.3008	2.5704
5.2954	2.5676
5.2900	2.5690
5.2846	2.5732
5.2792	2.5814
5.2738	2.5957
5.2684	2.6041
5.2631	2.5901
5.2578	2.5898
5.2524	2.6309
5.2471	2.6540
5.2418	2.6536
5.2365	2.6698
5.2312	2.6841
5.2260	2.7068
5.2207	2.7319
5.2154	2.7382
5.2102	2.7684
5.2050	2.8050
5.1998	2.8218
5.1945	2.8437
5.1893	2.8647
5.1842	2.8692
5.1790	2.8943
5.1738	2.9086
5.1686	2.9161
5.1635	2.9301
5.1584	2.9369
5.1532	2.9556
5.1481	2.9868
5.1430	2.9995
5.1379	2.9922
5.1328	3.0101
5.1277	3.0302
5.1227	3.0457
5.1176	3.0668
5.1126	3.0883
5.1075	3.1104
5.1025	3.1356
5.0975	3.1517
5.0925	3.1643
5.0875	3.1760
5.0825	3.1987
5.0775	3.2243
5.0726	3.2245
5.0676	3.2182
5.0627	3.2306
5.0577	3.2548
5.0528	3.2820
5.0479	3.3010
5.0430	3.2963
5.0380	3.2963
5.0332	3.3150
5.0283	3.3145
5.0234	3.3176
5.0185	3.3148
5.0137	3.3197
5.0088	3.3236
5.0040	3.3384
4.9992	3.3527
4.9944	3.3614
4.9896	3.3727
4.9848	3.3907
4.9800	3.4083
4.9752	3.4221
4.9704	3.4135
4.9657	3.4563
4.9609	3.5205
4.9562	3.5335
4.9514	3.5306
4.9467	3.5439
4.9420	3.5777
4.9373	3.5871
4.9326	3.5798
4.9279	3.5657
4.9232	3.5599
4.9186	3.5712
4.9139	3.5787
4.9092	3.5935
4.9046	3.6368
4.9000	3.6560
4.8953	3.6673
4.8907	3.7008
4.8861	3.7432
4.8815	3.7826
4.8769	3.8158
4.8723	3.8503
4.8678	3.8967
4.8632	3.9485
4.8586	3.9750
4.8541	3.9891
4.8495	4.0298
4.8450	4.0537
4.8405	4.1182
4.8360	4.1847
4.8315	4.1909
4.8270	4.1993
4.8225	4.2031
4.8180	4.2140
4.8135	4.2199
4.8090	4.2166
4.8046	4.2176
4.8001	4.2265
4.7957	4.2408
4.7913	4.2473
4.7868	4.2522
4.7824	4.2426
4.7780	4.2548
4.7736	4.2851
4.7692	4.3021
4.7648	4.3223
4.7605	4.3418
4.7561	4.3659
4.7517	4.3929
4.7474	4.4210
4.7431	4.4444
4.7387	4.4477
4.7344	4.4789
4.7301	4.5033
4.7258	4.5206
4.7215	4.5464
4.7172	4.5228
4.7129	4.4794
4.7086	4.5138
4.7043	4.5132
4.7000	4.4964
4.6958	4.4749
4.6915	4.4449
4.6873	4.4433
4.6831	4.4436
4.6788	4.4335
4.6746	4.4414
4.6704	4.4665
4.6662	4.5084
4.6620	4.5436
4.6578	4.5839
4.6536	4.6425
4.6495	4.7002
4.6453	4.7267
4.6411	4.7634
4.6370	4.8101
4.6328	4.8689
4.6287	4.9260
4.6246	4.9621
4.6205	5.0147
4.6163	5.0847
4.6122	5.1140
4.6081	5.1281
4.6040	5.1447
4.6000	5.1881
4.5959	5.2193
4.5918	5.2329
4.5877	5.2568
4.5837	5.2873
4.5796	5.3275
4.5756	5.3433
4.5716	5.3395
4.5675	5.3651
4.5635	5.3914
4.5595	5.3964
4.5555	5.4283
4.5515	5.4445
4.5475	5.4342
4.5435	5.4511
4.5395	5.4694
4.5356	5.4792
4.5316	5.4904
4.5276	5.5017
4.5237	5.5094
4.5197	5.4851
4.5158	5.4797
4.5119	5.4689
4.5080	5.4293
4.5040	5.4174
4.5001	5.4312
4.4962	5.4075
4.4923	5.3995
4.4884	5.4225
4.4846	5.3960
4.4807	5.3681
4.4768	5.4223
4.4730	5.4823
4.4691	5.5057
4.4652	5.5096
4.4614	5.5596
4.4576	5.6241
4.4537	5.6730
4.4499	5.7002
4.4461	5.7232
4.4423	5.7914
4.4385	5.8566
4.4347	5.9119
4.4309	5.9602
4.4271	5.9967
4.4233	6.0368
4.4196	6.1047
4.4158	6.1645
4.4120	6.1906
4.4083	6.2252
4.4045	6.2917
4.4008	6.3534
4.3971	6.4024
4.3934	6.4542
4.3896	6.4816
4.3859	6.5208
4.3822	6.6065
4.3785	6.6909
4.3748	6.7675
4.3711	6.8288
4.3674	6.8845
4.3638	6.9644
4.3601	7.0631
4.3564	7.1288
4.3528	7.1810
4.3491	7.2680
4.3455	7.3647
4.3418	7.4413
4.3382	7.5059
4.3346	7.5780
4.3310	7.6387
4.3273	7.6875
4.3237	7.7426
4.3201	7.8026
4.3165	7.8441
4.3129	7.8642
4.3094	7.8813
4.3058	7.9169
4.3022	7.9408
4.2986	7.9380
4.2951	7.9532
4.2915	7.9906
4.2880	8.0283
4.2844	8.0594
4.2809	8.0880
4.2774	8.0878
4.2738	8.1173
4.2703	8.1403
4.2668	8.1595
4.2633	8.2764
4.2598	8.4190
4.2563	8.5478
4.2528	8.6496
4.2493	8.7122
4.2458	8.7595
4.2424	8.7937
4.2389	8.8143
4.2354	8.8500
4.2320	8.9020
4.2285	8.9491
4.2251	8.9948
4.2216	9.0274
4.2182	9.0398
4.2148	9.0649
4.2113	9.1127
4.2079	9.1451
4.2045	9.1376
4.2011	9.1439
4.1977	9.1884
4.1943	9.2278
4.1909	9.2618
4.1875	9.3114
4.1841	9.3635
4.1808	9.4029
4.1774	9.4758
4.1740	9.5475
4.1707	9.5950
4.1673	9.6475
4.1640	9.7090
4.1606	9.7558
4.1573	9.7882
4.1540	9.8480
4.1506	9.9208
4.1473	9.9660
4.1440	10.0078
4.1407	10.0678
4.1374	10.0917
4.1341	10.1055
4.1308	10.1437
4.1275	10.1789
4.1242	10.2049
4.1209	10.2286
4.1177	10.2644
4.1144	10.3158
4.1111	10.3498
4.1079	10.3980
4.1046	10.4545
4.1014	10.4984
4.0981	10.5441
4.0949	10.6008
4.0917	10.6713
4.0884	10.7421
4.0852	10.7888
4.0820	10.8441
4.0788	10.9047
4.0756	10.9566
4.0724	11.0006
4.0692	11.0343
4.0660	11.0496
4.0628	11.0509
4.0596	11.0732
4.0565	11.0908
4.0533	11.0833
4.0501	11.0648
4.0470	11.0545
4.0438	11.0205
4.0406	10.9985
4.0375	10.9769
4.0344	10.9577
4.0312	10.9713
4.0281	10.9547
4.0250	10.8974
4.0218	10.8823
4.0187	10.8914
4.0156	10.9012
4.0125	10.9045
4.0094	10.9134
4.0063	10.9216
4.0032	10.9406
4.0001	10.9352
3.9970	10.9335
3.9940	10.9596
3.9909	10.9516
3.9878	10.9376
3.9847	10.9446
3.9817	10.9462
3.9786	10.9603
3.9756	10.9956
3.9725	11.0220
3.9695	11.0402
3.9665	11.0716
3.9634	11.1106
3.9604	11.1550
3.9574	11.2078
3.9544	11.2704
3.9513	11.3470
3.9483	11.4220
3.9453	11.4834
3.9423	11.5732
3.9393	11.6608
3.9363	11.7189
3.9333	11.7806
3.9304	11.8570
3.9274	11.9055
3.9244	11.9384
3.9214	11.9831
3.9185	12.0257
3.9155	12.0564
3.9126	12.0600
3.9096	12.0508
3.9067	12.0635
3.9037	12.0607
3.9008	12.0555
3.8979	12.0462
3.8949	12.0241
3.8920	12.0005
3.8891	11.9810
3.8862	11.9651
3.8833	11.9465
3.8804	11.9262
3.8775	11.9095
3.8746	11.9076
3.8717	11.9046
3.8688	11.9221
3.8659	11.9311
3.8630	11.9358
3.8601	11.9636
3.8573	11.9984
3.8544	12.0337
3.8515	12.0553
3.8487	12.0789
3.8458	12.1242
3.8430	12.1680
3.8401	12.1927
3.8373	12.2148
3.8344	12.2529
3.8316	12.2820
3.8288	12.3000
3.8259	12.3260
3.8231	12.3468
3.8203	12.3584
3.8175	12.3609
3.8147	12.3900
3.8119	12.4190
3.8091	12.4355
3.8063	12.4638
3.8035	12.4854
3.8007	12.4906
3.7979	12.5048
3.7951	12.5145
3.7924	12.5278
3.7896	12.5463
3.7868	12.5678
3.7841	12.5636
3.7813	12.5721
3.7785	12.6103
3.7758	12.6171
3.7730	12.6176
3.7703	12.6161
3.7676	12.5981
3.7648	12.5602
3.7621	12.5360
3.7594	12.5109
3.7566	12.4867
3.7539	12.4717
3.7512	12.4441
3.7485	12.4012
3.7458	12.3904
3.7431	12.3839
3.7404	12.3541
3.7377	12.3412
3.7350	12.3581
3.7323	12.3776
3.7296	12.3797
3.7269	12.3942
3.7242	12.4212
3.7216	12.4511
3.7189	12.4906
3.7162	12.5379
3.7136	12.5753
3.7109	12.6173
3.7083	12.6534
3.7056	12.6940
3.7030	12.7418
3.7003	12.7959
3.6977	12.8364
3.6950	12.8629
3.6924	12.8651
3.6898	12.8969
3.6872	12.9159
3.6845	12.9152
3.6819	12.9197
3.6793	12.9262
3.6767	12.9366
3.6741	12.9504
3.6715	12.9701
3.6689	12.9787
3.6663	12.9958
3.6637	13.0117
3.6611	13.0277
3.6585	13.0404
3.6560	13.0561
3.6534	13.0816
3.6508	13.1119
3.6482	13.1379
3.6457	13.1376
3.6431	13.1386
3.6406	13.1498
3.6380	13.1543
3.6355	13.1561
3.6329	13.1470
3.6304	13.1449
3.6278	13.1292
3.6253	13.0964
3.6227	13.0545
3.6202	13.0012
3.6177	12.9496
3.6152	12.9065
3.6127	12.8740
3.6101	12.8634
3.6076	12.8482
3.6051	12.8280
3.6026	12.7906
3.6001	12.7652
3.5976	12.7548
3.5951	12.7429
3.5926	12.7309
3.5901	12.7371
3.5876	12.7683
3.5852	12.7743
3.5827	12.7551
3.5802	12.7402
3.5777	12.7429
3.5753	12.7223
3.5728	12.7223
3.5704	12.7209
3.5679	12.6911
3.5654	12.6516
3.5630	12.6084
3.5605	12.5678
3.5581	12.5270
3.5557	12.4914
3.5532	12.4633
3.5508	12.3963
3.5484	12.3368
3.5459	12.3037
3.5435	12.2709
3.5411	12.2386
3.5387	12.2161
3.5363	12.1830
3.5338	12.1598
3.5314	12.1293
3.5290	12.1218
3.5266	12.0998
3.5242	12.0571
3.5218	12.0178
3.5195	11.9887
3.5171	11.9327
3.5147	11.8729
3.5123	11.8003
3.5099	11.7093
3.5075	11.6296
3.5052	11.5786
3.5028	11.5239
3.5004	11.4525
3.4981	11.4131
3.4957	11.3885
3.4934	11.3639
3.4910	11.3231
3.4887	11.2352
3.4863	11.1654
3.4840	11.1555
3.4816	11.1093
3.4793	11.0564
3.4770	11.0402
3.4746	11.0514
3.4723	11.0444
3.4700	11.0339
3.4677	11.0337
3.4653	11.0313
3.4630	11.0179
3.4607	11.0109
3.4584	11.0093
3.4561	10.9877
3.4538	10.9483
3.4515	10.9085
3.4492	10.8517
3.4469	10.7953
3.4446	10.7350
3.4423	10.6636
3.4400	10.5823
3.4378	10.4990
3.4355	10.4107
3.4332	10.3197
3.4309	10.2159
3.4287	10.1031
3.4264	10.0223
3.4241	9.9449
3.4219	9.8815
3.4196	9.8285
3.4174	9.7706
3.4151	9.7355
3.4129	9.7498
3.4106	9.7605
3.4084	9.7352
3.4061	9.7062
3.4039	9.7202
3.4017	9.7235
3.3994	9.7073
3.3972	9.6898
3.3950	9.6823
3.3928	9.6488
3.3906	9.5906
3.3883	9.5341
3.3861	9.4605
3.3839	9.4005
3.3817	9.3579
3.3795	9.2899
3.3773	9.2196
3.3751	9.1896
3.3729	9.1516
3.3707	9.0942
3.3685	9.0244
3.3663	9.0133
3.3641	9.0210
3.3620	8.9896
3.3598	8.9489
3.3576	8.9330
3.3554	8.9264
3.3533	8.9142
3.3511	8.8786
3.3489	8.8449
3.3468	8.8504
3.3446	8.8345
3.3425	8.8031
3.3403	8.7815
3.3382	8.7438
3.3360	8.7021
3.3339	8.6550
3.3317	8.6018
3.3296	8.5382
3.3274	8.4852
3.3253	8.4244
3.3232	8.3587
3.3210	8.3104
3.3189	8.2481
3.3168	8.1759
3.3147	8.1251
3.3126	8.0808
3.3104	8.0177
3.3083	7.9877
3.3062	7.9743
3.3041	7.9343
3.3020	7.8928
3.2999	7.8787
3.2978	7.8710
3.2957	7.8389
3.2936	7.8251
3.2915	7.8007
3.2894	7.7510
3.2874	7.7268
3.2853	7.6812
3.2832	7.6324
3.2811	7.6050
3.2790	7.5351
3.2770	7.4824
3.2749	7.4376
3.2728	7.3428
3.2708	7.2891
3.2687	7.2876
3.2666	7.2192
3.2646	7.1217
3.2625	7.0760
3.2605	7.0470
3.2584	6.9852
3.2564	6.9488
3.2543	6.9372
3.2523	6.8981
3.2503	6.8771
3.2482	6.8695
3.2462	6.8428
3.2442	6.8325
3.2421	6.8257
3.2401	6.8145
3.2381	6.7966
3.2361	6.7734
3.2340	6.7273
3.2320	6.6849
3.2300	6.6560
3.2280	6.5979
3.2260	6.5493
3.2240	6.5220
3.2220	6.4624
3.2200	6.4038
3.2180	6.3511
3.2160	6.2974
3.2140	6.2413
3.2120	6.1706
3.2100	6.1312
3.2080	6.1132
3.2060	6.0989
