Name: Colemanite Ca2B6O11 * 5H2O
Type: Mineral
Class: Borate
Subclass: None
Particle Size: Unsieved coarse powder
Sample No.: None
Owner: USGS
Wavelength range: 0.40 - 14.05 um
Origin: Boron, California

Description: Colemanite powder from Boron, California





Measurement: Directional Hemispherical Reflectance
First Column: X
Second Column: Y
X Units: Wavelength (micrometers)
Y Units: Reflectance (percent)
First X Value: 14.05105
Last X Value: 0.40000
Number of X Values: 2756
Additional Information: None

 14.051   4.0376
 14.013   4.0788
 13.975   4.1097
 13.938   4.0067
 13.900   4.2333
 13.863   4.3363
 13.826   4.5629
 13.790   4.6865
 13.753   4.8410
 13.717   4.8719
 13.680   5.0573
 13.644   5.0676
 13.609   5.0985
 13.573   4.8101
 13.538   4.3157
 13.502   3.8522
 13.467   3.7389
 13.432   3.7698
 13.398   3.9140
 13.363   4.1097
 13.329   4.4290
 13.295   4.5732
 13.261   4.8513
 13.227   5.1294
 13.193   5.4281
 13.160   5.6547
 13.126   5.9019
 13.093   5.9225
 13.060   5.7989
 13.027   5.3354
 12.995   4.6453
 12.962   3.8831
 12.930   3.5123
 12.898   3.3681
 12.866   3.3887
 12.834   3.4711
 12.802   3.6771
 12.771   3.7801
 12.739   3.9037
 12.708   4.0170
 12.677   4.1921
 12.646   4.2642
 12.616   4.3878
 12.585   4.4187
 12.554   4.4290
 12.524   4.3981
 12.494   4.4393
 12.464   4.5217
 12.434   4.6556
 12.404   4.7071
 12.375   4.9131
 12.345   5.0161
 12.316   5.0779
 12.287   5.0573
 12.258   4.9955
 12.229   4.8822
 12.200   4.8101
 12.171   4.6556
 12.143   4.5526
 12.115   4.5114
 12.086   4.6453
 12.058   4.6144
 12.030   4.7277
 12.002   4.8101
 11.975   4.9440
 11.947   5.0573
 11.920   5.2942
 11.892   5.4487
 11.865   5.6856
 11.838   5.8504
 11.811   6.0152
 11.784   6.0667
 11.757   6.2727
 11.731   6.4375
 11.704   6.6126
 11.678   6.7259
 11.652   6.9731
 11.626   7.0864
 11.600   7.2100
 11.574   7.2821
 11.548   7.3954
 11.522   7.4160
 11.497   7.4057
 11.471   7.4572
 11.446   7.5396
 11.421   7.5293
 11.396   7.6632
 11.371   7.9104
 11.346   8.1164
 11.321   8.1988
 11.297   8.3224
 11.272   8.5284
 11.248   8.7962
 11.223   8.9095
 11.199   9.0537
 11.175   9.1670
 11.151   9.2494
 11.127   9.3936
 11.103   9.7026
 11.079   9.9807
 11.056  10.3000
 11.032  10.5369
 11.009  10.8150
 10.985  11.1549
 10.962  11.5360
 10.939  11.8553
 10.916  12.1746
 10.893  12.3909
 10.870  12.5763
 10.848  12.5454
 10.825  12.4218
 10.802  12.2467
 10.780  11.9274
 10.758  11.4639
 10.735  11.1549
 10.713  10.8871
 10.691  10.8047
 10.669  10.9077
 10.647  11.1549
 10.625  11.3609
 10.604  11.6184
 10.582  11.8553
 10.560  12.0304
 10.539  12.1231
 10.518  12.3394
 10.496  12.4424
 10.475  12.5454
 10.454  12.5454
 10.433  12.4836
 10.412  12.2879
 10.391  12.0716
 10.370  11.7523
 10.350  11.3197
 10.329  10.6193
 10.309   9.9086
 10.288   9.2082
 10.268   8.5387
 10.247   7.8177
 10.227   7.3233
 10.207   6.9525
 10.187   6.6538
 10.167   6.3963
 10.147   6.2212
 10.127   6.0255
 10.108   5.9122
 10.088   5.8298
 10.068   5.7577
 10.049   5.5620
 10.029   5.3869
 10.010   5.2015
  9.991   5.0058
  9.972   4.6659
  9.952   4.4496
  9.933   4.3157
  9.914   4.2230
  9.895   4.1200
  9.877   4.0376
  9.858   3.9861
  9.839   4.0479
  9.821   4.1097
  9.802   4.1818
  9.783   4.2024
  9.765   4.2436
  9.747   4.2230
  9.728   4.3672
  9.710   4.5320
  9.692   4.6556
  9.674   4.6968
  9.656   4.7689
  9.638   4.8307
  9.620   4.9543
  9.602   5.0367
  9.585   5.1603
  9.567   5.3045
  9.549   5.5311
  9.532   5.7165
  9.514   5.8401
  9.497   5.8092
  9.479   5.7165
  9.462   5.4281
  9.445   4.9749
  9.428   4.4496
  9.411   4.1303
  9.394   3.8522
  9.377   3.5535
  9.360   3.2548
  9.343   3.0488
  9.326   2.9149
  9.309   2.8325
  9.293   2.6368
  9.276   2.5132
  9.259   2.3278
  9.243   2.1733
  9.226   2.0806
  9.210   1.9879
  9.194   1.8231
  9.178   1.7922
  9.161   1.6892
  9.145   1.6274
  9.129   1.5965
  9.113   1.6377
  9.097   1.7304
  9.081   1.7613
  9.065   1.7407
  9.049   1.8334
  9.034   1.9467
  9.018   2.0188
  9.002   2.0291
  8.987   2.0703
  8.971   2.0291
  8.956   2.0909
  8.940   2.0909
  8.925   2.2248
  8.909   2.2145
  8.894   2.2042
  8.879   2.2042
  8.864   2.3278
  8.849   2.2866
  8.834   2.2145
  8.819   2.2248
  8.804   2.2763
  8.789   2.2454
  8.774   2.2454
  8.759   2.2145
  8.744   2.1939
  8.730   2.1115
  8.715   2.1321
  8.700   2.1630
  8.686   2.2248
  8.671   2.1218
  8.657   2.0909
  8.642   2.1012
  8.628   2.1424
  8.614   2.1527
  8.599   2.1527
  8.585   2.1012
  8.571   2.0188
  8.557   1.9158
  8.543   1.8643
  8.529   1.7304
  8.515   1.6377
  8.501   1.5862
  8.487   1.4420
  8.473   1.3081
  8.459   1.2875
  8.445   1.2257
  8.431   1.2566
  8.418   1.3184
  8.404   1.3699
  8.391   1.3287
  8.377   1.3493
  8.363   1.3287
  8.350   1.4111
  8.337   1.5450
  8.323   1.6274
  8.310   1.6480
  8.297   1.7407
  8.283   1.7613
  8.270   1.8334
  8.257   1.8952
  8.244   2.0085
  8.231   2.0291
  8.218   2.1218
  8.205   2.2248
  8.192   2.3587
  8.179   2.4411
  8.166   2.5338
  8.153   2.5544
  8.140   2.5956
  8.128   2.5647
  8.115   2.5956
  8.102   2.5338
  8.090   2.4205
  8.077   2.2969
  8.064   2.1939
  8.052   2.0909
  8.039   2.1321
  8.027   2.1630
  8.015   2.1939
  8.002   2.1733
  7.990   2.2763
  7.978   2.4308
  7.965   2.5956
  7.953   2.7295
  7.941   2.8737
  7.929   2.9767
  7.917   3.1209
  7.905   3.2239
  7.893   3.3578
  7.881   3.4505
  7.869   3.5123
  7.857   3.5432
  7.845   3.5432
  7.833   3.4299
  7.821   3.3269
  7.809   3.2136
  7.798   3.1003
  7.786   3.0282
  7.774   3.0694
  7.763   3.0797
  7.751   3.0179
  7.739   2.9870
  7.728   2.9973
  7.716   2.9870
  7.705   3.0282
  7.694   3.0900
  7.682   3.2239
  7.671   3.3887
  7.659   3.6359
  7.648   3.8934
  7.637   4.2230
  7.626   4.5732
  7.614   5.0058
  7.603   5.4693
  7.592   5.8916
  7.581   6.2212
  7.570   6.4478
  7.559   6.6435
  7.548   6.8083
  7.537   6.9113
  7.526   7.0452
  7.515   7.0967
  7.504   7.1070
  7.493   7.0864
  7.483   7.0658
  7.472   7.0143
  7.461   6.9010
  7.450   6.7465
  7.440   6.5817
  7.429   6.2727
  7.418   5.9225
  7.408   5.5620
  7.397   5.2530
  7.387   5.1603
  7.376   5.3045
  7.366   5.6341
  7.355   6.0358
  7.345   6.3448
  7.334   6.7259
  7.324   7.1173
  7.314   7.4778
  7.303   7.7662
  7.293   8.0031
  7.283   8.1988
  7.273   8.3121
  7.263   8.3121
  7.252   8.3018
  7.242   8.1782
  7.232   8.0134
  7.222   7.7662
  7.212   7.5190
  7.202   7.1997
  7.192   6.9010
  7.182   6.6126
  7.172   6.2418
  7.162   5.9225
  7.152   5.6856
  7.143   5.4281
  7.133   5.2221
  7.123   5.0470
  7.113   4.7998
  7.103   4.5526
  7.094   4.3672
  7.084   4.1612
  7.074   3.9964
  7.065   3.7080
  7.055   3.3784
  7.046   3.0797
  7.036   2.8016
  7.026   2.5544
  7.017   2.3587
  7.007   2.1115
  6.998   1.9261
  6.989   1.7201
  6.979   1.5759
  6.970   1.5038
  6.960   1.4008
  6.951   1.2669
  6.942   1.2566
  6.932   1.2257
  6.923   1.2051
  6.914   1.1845
  6.905   1.1433
  6.896   1.1124
  6.886   1.1124
  6.877   1.0815
  6.868   1.1021
  6.859   1.1227
  6.850   1.1433
  6.841   1.0918
  6.832   1.1124
  6.823   1.0918
  6.814   1.0712
  6.805   1.0609
  6.796   1.0403
  6.787   1.0197
  6.778   1.0197
  6.770   1.0197
  6.761   1.0918
  6.752   1.0609
  6.743   1.0300
  6.734   0.9991
  6.726   1.0094
  6.717   1.0815
  6.708   1.1021
  6.700   1.0918
  6.691   1.1021
  6.682   1.0300
  6.674   1.0506
  6.665   1.0815
  6.657   1.1433
  6.648   1.1948
  6.640   1.1948
  6.631   1.1433
  6.623   1.1330
  6.614   1.1742
  6.606   1.2463
  6.597   1.3081
  6.589   1.2978
  6.581   1.2257
  6.572   1.2154
  6.564   1.2257
  6.556   1.2566
  6.547   1.2566
  6.539   1.2978
  6.531   1.3081
  6.523   1.2875
  6.514   1.3081
  6.506   1.3493
  6.498   1.3287
  6.490   1.3390
  6.482   1.3184
  6.474   1.3287
  6.466   1.3287
  6.458   1.2772
  6.450   1.2360
  6.442   1.2463
  6.434   1.2669
  6.426   1.2257
  6.418   1.1227
  6.410   1.0300
  6.402   1.0197
  6.394   1.0403
  6.386   0.9888
  6.378   0.9682
  6.370   0.9270
  6.363   0.8858
  6.355   0.8858
  6.347   0.9167
  6.339   0.8755
  6.332   0.8343
  6.324   0.8343
  6.316   0.8961
  6.308   0.9064
  6.301   0.8961
  6.293   0.8652
  6.286   0.8549
  6.278   0.8549
  6.270   0.8858
  6.263   0.8652
  6.255   0.8549
  6.248   0.8549
  6.240   0.8858
  6.233   0.8446
  6.225   0.8137
  6.218   0.8034
  6.210   0.8240
  6.203   0.8755
  6.195   0.8961
  6.188   0.8652
  6.181   0.8755
  6.173   0.8446
  6.166   0.8034
  6.159   0.8034
  6.151   0.8549
  6.144   0.8755
  6.137   0.9064
  6.130   0.9270
  6.122   0.9064
  6.115   0.8549
  6.108   0.8755
  6.101   0.8858
  6.094   0.8549
  6.086   0.8446
  6.079   0.8549
  6.072   0.8652
  6.065   0.9167
  6.058   0.9270
  6.051   0.8961
  6.044   0.9064
  6.037   0.9167
  6.030   0.9373
  6.023   0.9167
  6.016   0.9064
  6.009   0.9579
  6.002   0.9579
  5.995   0.9682
  5.988   0.9682
  5.981   0.9991
  5.974   0.9579
  5.967   0.9270
  5.960   0.9579
  5.954   0.9476
  5.947   0.9579
  5.940   1.0197
  5.933   1.0300
  5.926   1.0609
  5.920   1.0197
  5.913   1.0094
  5.906   0.9991
  5.899   0.9991
  5.893   0.9888
  5.886   0.9579
  5.879   0.9270
  5.873   0.9991
  5.866   1.0506
  5.859   1.0197
  5.853   0.9785
  5.846   1.0197
  5.840   1.0403
  5.833   1.0300
  5.827   1.0300
  5.820   1.0094
  5.813   0.9888
  5.807   1.0197
  5.800   1.0506
  5.794   1.0918
  5.788   1.1124
  5.781   1.1227
  5.775   1.1124
  5.768   1.0712
  5.762   1.0506
  5.755   1.0918
  5.749   1.0815
  5.743   1.1021
  5.736   1.1227
  5.730   1.1330
  5.724   1.1433
  5.717   1.1227
  5.711   1.1227
  5.705   1.1227
  5.698   1.1124
  5.692   1.1124
  5.686   1.1433
  5.680   1.1639
  5.674   1.1845
  5.667   1.2257
  5.661   1.2257
  5.655   1.2154
  5.649   1.2051
  5.643   1.1948
  5.637   1.1536
  5.630   1.1742
  5.624   1.2257
  5.618   1.2566
  5.612   1.2360
  5.606   1.2566
  5.600   1.2978
  5.594   1.2875
  5.588   1.2463
  5.582   1.2463
  5.576   1.2257
  5.570   1.2566
  5.564   1.2978
  5.558   1.2669
  5.552   1.2257
  5.546   1.2669
  5.540   1.2978
  5.534   1.3081
  5.528   1.3493
  5.523   1.3493
  5.517   1.3493
  5.511   1.3596
  5.505   1.3493
  5.499   1.3287
  5.493   1.3287
  5.487   1.3802
  5.482   1.3802
  5.476   1.4008
  5.470   1.4214
  5.464   1.4214
  5.459   1.3802
  5.453   1.4111
  5.447   1.4523
  5.441   1.4626
  5.436   1.4317
  5.430   1.4420
  5.424   1.4729
  5.419   1.4523
  5.413   1.4729
  5.407   1.4523
  5.402   1.4420
  5.396   1.4935
  5.390   1.5141
  5.385   1.5347
  5.379   1.5244
  5.374   1.5244
  5.368   1.5141
  5.363   1.5244
  5.357   1.5553
  5.352   1.5656
  5.346   1.5656
  5.341   1.5862
  5.335   1.6068
  5.330   1.6068
  5.324   1.5862
  5.319   1.5656
  5.313   1.5656
  5.308   1.5965
  5.302   1.5862
  5.297   1.5759
  5.291   1.6171
  5.286   1.6274
  5.281   1.6480
  5.275   1.6892
  5.270   1.6686
  5.265   1.6789
  5.259   1.6789
  5.254   1.6480
  5.249   1.6377
  5.243   1.6583
  5.238   1.6686
  5.233   1.6789
  5.227   1.6892
  5.222   1.6892
  5.217   1.7098
  5.212   1.7098
  5.206   1.7098
  5.201   1.6892
  5.196   1.6789
  5.191   1.6995
  5.186   1.7201
  5.180   1.6995
  5.175   1.7407
  5.170   1.7613
  5.165   1.7407
  5.160   1.7716
  5.155   1.7510
  5.150   1.6995
  5.145   1.7098
  5.139   1.7510
  5.134   1.8025
  5.129   1.8025
  5.124   1.7510
  5.119   1.6995
  5.114   1.7407
  5.109   1.8025
  5.104   1.7819
  5.099   1.7201
  5.094   1.7407
  5.089   1.7922
  5.084   1.8128
  5.079   1.8334
  5.074   1.8540
  5.069   1.8540
  5.064   1.8128
  5.059   1.7613
  5.054   1.7613
  5.049   1.8128
  5.044   1.8025
  5.040   1.7922
  5.035   1.7819
  5.030   1.7922
  5.025   1.8746
  5.020   1.8952
  5.015   1.8334
  5.010   1.8231
  5.005   1.8437
  5.001   1.8334
  4.996   1.8334
  4.991   1.8643
  4.986   1.8540
  4.981   1.8437
  4.977   1.8437
  4.972   1.8540
  4.967   1.8952
  4.962   1.9055
  4.958   1.8952
  4.953   1.8643
  4.948   1.8746
  4.943   1.9055
  4.939   1.8952
  4.934   1.8746
  4.929   1.8540
  4.925   1.8437
  4.920   1.8746
  4.915   1.9158
  4.911   1.9364
  4.906   1.9673
  4.901   1.9467
  4.897   1.9673
  4.892   1.9673
  4.888   1.9673
  4.883   1.9673
  4.878   1.9982
  4.874   1.9364
  4.869   1.8952
  4.865   1.9261
  4.860   1.9982
  4.856   1.9879
  4.851   1.9467
  4.846   1.9673
  4.842   1.9776
  4.837   1.9467
  4.833   1.9261
  4.828   1.9158
  4.824   1.9673
  4.819   2.0188
  4.815   1.9776
  4.810   1.9467
  4.806   1.9158
  4.802   1.9467
  4.797   2.0085
  4.793   1.9982
  4.788   2.0188
  4.784   2.0497
  4.779   2.0188
  4.775   1.9673
  4.771   1.9776
  4.766   2.0188
  4.762   1.9982
  4.758   2.0497
  4.753   2.0291
  4.749   1.9467
  4.744   1.8952
  4.740   1.9158
  4.736   1.9982
  4.731   2.0394
  4.727   2.0497
  4.723   2.0600
  4.719   1.9982
  4.714   1.9467
  4.710   1.9364
  4.706   1.9673
  4.701   1.9570
  4.697   1.9570
  4.693   1.9776
  4.689   1.9879
  4.684   1.9776
  4.680   1.9673
  4.676   1.9261
  4.672   1.9055
  4.668   1.8952
  4.663   1.8643
  4.659   1.8746
  4.655   1.8952
  4.651   1.9055
  4.647   1.9158
  4.643   1.9261
  4.638   1.9570
  4.634   1.9879
  4.630   2.0085
  4.626   2.0394
  4.622   1.9879
  4.618   1.9467
  4.614   1.9570
  4.610   1.9570
  4.605   1.9673
  4.601   1.9879
  4.597   1.9982
  4.593   2.0188
  4.589   2.0188
  4.585   1.9982
  4.581   1.9673
  4.577   1.9982
  4.573   2.0394
  4.569   2.0188
  4.565   2.0085
  4.561   2.0600
  4.557   2.0806
  4.553   2.0188
  4.549   2.0085
  4.545   2.0806
  4.541   2.1012
  4.537   2.1012
  4.533   2.1012
  4.529   2.0497
  4.525   2.0085
  4.521   2.0291
  4.517   2.0806
  4.513   2.1012
  4.509   2.0806
  4.505   2.0497
  4.502   2.0703
  4.498   2.0394
  4.494   2.0497
  4.490   2.0806
  4.486   2.0909
  4.482   2.1012
  4.478   2.1218
  4.474   2.0909
  4.470   2.0394
  4.467   2.0188
  4.463   2.0806
  4.459   2.1424
  4.455   2.1630
  4.451   2.1424
  4.447   2.1424
  4.444   2.1630
  4.440   2.1527
  4.436   2.1218
  4.432   2.1836
  4.428   2.2145
  4.425   2.1733
  4.421   2.1321
  4.417   2.1321
  4.413   2.1321
  4.410   2.2145
  4.406   2.2660
  4.402   2.2351
  4.398   2.2042
  4.395   2.1527
  4.391   2.1424
  4.387   2.1733
  4.384   2.2042
  4.380   2.2042
  4.376   2.1836
  4.372   2.1836
  4.369   2.1630
  4.365   2.2351
  4.361   2.2763
  4.358   2.2042
  4.354   2.1836
  4.350   2.1939
  4.347   2.1630
  4.343   2.1527
  4.340   2.2145
  4.336   2.2763
  4.332   2.2969
  4.329   2.2763
  4.325   2.2866
  4.321   2.2454
  4.318   2.2042
  4.314   2.1527
  4.311   2.1733
  4.307   2.2557
  4.304   2.2042
  4.300   2.1527
  4.296   2.2145
  4.293   2.2763
  4.289   2.2454
  4.286   2.2454
  4.282   2.2969
  4.279   2.2660
  4.275   2.2145
  4.272   2.2248
  4.268   2.2351
  4.265   2.1939
  4.261   2.2866
  4.258   2.3278
  4.254   2.2660
  4.251   2.2351
  4.247   2.2145
  4.244   2.3175
  4.240   2.3999
  4.237   2.4102
  4.233   2.3278
  4.230   2.2557
  4.226   2.2454
  4.223   2.2763
  4.219   2.2763
  4.216   2.2145
  4.213   2.1527
  4.209   2.1836
  4.206   2.2145
  4.202   2.3175
  4.199   2.3278
  4.196   2.2660
  4.192   2.2248
  4.189   2.2660
  4.185   2.3381
  4.182   2.3484
  4.179   2.2866
  4.175   2.2660
  4.172   2.2454
  4.169   2.2454
  4.165   2.2454
  4.162   2.2557
  4.159   2.2248
  4.155   2.2763
  4.152   2.3072
  4.149   2.2351
  4.145   2.2248
  4.142   2.3072
  4.139   2.3072
  4.135   2.2145
  4.132   2.1939
  4.129   2.2454
  4.126   2.2763
  4.122   2.2763
  4.119   2.2660
  4.116   2.2763
  4.112   2.2866
  4.109   2.2763
  4.106   2.2660
  4.103   2.2557
  4.099   2.2351
  4.096   2.2042
  4.093   2.2042
  4.090   2.1836
  4.086   2.1527
  4.083   2.1424
  4.080   2.1939
  4.077   2.1836
  4.074   2.1321
  4.070   2.1218
  4.067   2.1115
  4.064   2.0806
  4.061   2.1218
  4.058   2.1321
  4.055   2.1012
  4.051   2.1115
  4.048   2.1115
  4.045   2.1012
  4.042   2.0497
  4.039   2.0600
  4.036   2.0497
  4.032   2.0600
  4.029   2.0497
  4.026   2.0085
  4.023   1.9879
  4.020   1.9982
  4.017   1.9673
  4.014   1.9982
  4.011   2.0188
  4.008   2.0085
  4.004   1.9776
  4.001   1.9982
  3.998   2.0394
  3.995   2.0394
  3.992   2.0188
  3.989   2.0291
  3.986   2.0600
  3.983   2.0497
  3.980   2.0600
  3.977   2.0188
  3.974   1.9158
  3.971   1.9673
  3.968   1.9673
  3.965   1.9364
  3.962   1.9467
  3.959   2.0188
  3.956   2.0394
  3.953   1.9879
  3.950   1.9364
  3.947   1.9261
  3.944   1.9673
  3.941   2.0085
  3.938   1.9673
  3.935   1.9776
  3.932   2.0394
  3.929   2.1115
  3.926   2.0806
  3.923   2.0291
  3.920   2.0188
  3.917   2.0291
  3.914   2.0291
  3.911   2.0909
  3.908   2.0806
  3.905   2.0806
  3.902   2.0188
  3.899   1.9982
  3.896   2.0497
  3.893   2.1218
  3.890   2.1115
  3.887   2.0497
  3.884   1.9776
  3.882   1.9673
  3.879   2.0600
  3.876   2.1115
  3.873   2.1321
  3.870   2.1218
  3.867   2.0497
  3.864   2.1424
  3.861   2.1218
  3.858   2.0806
  3.856   2.0394
  3.853   2.0909
  3.850   2.1424
  3.847   2.1012
  3.844   2.0600
  3.841   2.1424
  3.838   2.1424
  3.836   2.1424
  3.833   2.1939
  3.830   2.2042
  3.827   2.1836
  3.824   2.1836
  3.822   2.2042
  3.819   2.2763
  3.816   2.2660
  3.813   2.2866
  3.810   2.2660
  3.807   2.2042
  3.805   2.1630
  3.802   2.1321
  3.799   2.1836
  3.796   2.3278
  3.794   2.3278
  3.791   2.2866
  3.788   2.2866
  3.785   2.2866
  3.782   2.3072
  3.780   2.3690
  3.777   2.4411
  3.774   2.4514
  3.771   2.3690
  3.769   2.3072
  3.766   2.2763
  3.763   2.3381
  3.761   2.3587
  3.758   2.3072
  3.755   2.3175
  3.752   2.3793
  3.750   2.3793
  3.747   2.3484
  3.744   2.3175
  3.742   2.2969
  3.739   2.3381
  3.736   2.3999
  3.733   2.3072
  3.731   2.3278
  3.728   2.4205
  3.725   2.4308
  3.723   2.3793
  3.720   2.3690
  3.717   2.3381
  3.715   2.3896
  3.712   2.3793
  3.709   2.3896
  3.707   2.4514
  3.704   2.4617
  3.702   2.3999
  3.699   2.3896
  3.696   2.3896
  3.694   2.3896
  3.691   2.3793
  3.688   2.4102
  3.686   2.3999
  3.683   2.3793
  3.680   2.3999
  3.678   2.4102
  3.675   2.3793
  3.673   2.3690
  3.670   2.3896
  3.667   2.3793
  3.665   2.2969
  3.662   2.3690
  3.660   2.4411
  3.657   2.3690
  3.655   2.3587
  3.652   2.3896
  3.649   2.4308
  3.647   2.4514
  3.644   2.4514
  3.642   2.4308
  3.639   2.3896
  3.637   2.3793
  3.634   2.3278
  3.632   2.3999
  3.629   2.5132
  3.626   2.5235
  3.624   2.4926
  3.621   2.4102
  3.619   2.2763
  3.616   2.3175
  3.614   2.4102
  3.611   2.4720
  3.609   2.4926
  3.606   2.4308
  3.604   2.3587
  3.601   2.3175
  3.599   2.3278
  3.596   2.3999
  3.594   2.3690
  3.591   2.2969
  3.589   2.3072
  3.586   2.3587
  3.584   2.3690
  3.581   2.3690
  3.579   2.2763
