Name: Gaylussite Na2Ca(CO3)2 * 5H2O
Type: Mineral
Class: Borate
Subclass: None
Particle Size: Unsieved coarse powder
Sample No.: NMNH 102876-2
Owner: Smithsonian Institute, National Museum of Nat. History
Wavelength range: 0.40 - 14.05 um
Origin: Searles Lake, CA

Description: Gaylussite powder from Searles Lake, CA





Measurement: Directional Hemispherical Reflectance
First Column: X
Second Column: Y
X Units: Wavelength (micrometers)
Y Units: Reflectance (percent)
First X Value: 14.05105
Last X Value: 0.40000
Number of X Values: 2756
Additional Information: None

 14.051   2.5132
 14.013   2.3381
 13.975   2.2969
 13.938   2.2866
 13.900   2.3690
 13.863   2.2351
 13.826   2.1527
 13.790   1.9673
 13.753   1.8231
 13.717   1.6480
 13.680   1.6686
 13.644   1.5965
 13.609   1.6480
 13.573   1.6274
 13.538   1.6377
 13.502   1.6068
 13.467   1.6892
 13.432   1.6686
 13.398   1.7613
 13.363   1.7201
 13.329   1.7407
 13.295   1.7098
 13.261   1.7510
 13.227   1.6995
 13.193   1.7098
 13.160   1.7304
 13.126   1.7922
 13.093   1.7407
 13.060   1.8025
 13.027   1.7922
 12.995   1.8334
 12.962   1.8746
 12.930   1.9570
 12.898   1.8952
 12.866   1.8746
 12.834   1.7819
 12.802   1.8746
 12.771   1.9055
 12.739   1.9261
 12.708   1.9261
 12.677   1.9982
 12.646   1.9261
 12.616   1.9364
 12.585   1.9364
 12.554   1.9776
 12.524   1.9364
 12.494   1.9879
 12.464   1.9673
 12.434   1.9776
 12.404   1.8952
 12.375   1.9055
 12.345   1.8231
 12.316   1.8128
 12.287   1.8025
 12.258   1.8334
 12.229   1.7922
 12.200   1.8231
 12.171   1.8231
 12.143   1.8849
 12.115   1.8849
 12.086   1.9879
 12.058   1.9673
 12.030   2.0394
 12.002   2.0806
 11.975   2.1630
 11.947   2.1424
 11.920   2.1939
 11.892   2.2660
 11.865   2.3793
 11.838   2.3690
 11.811   2.4617
 11.784   2.5029
 11.757   2.5750
 11.731   2.6265
 11.704   2.6677
 11.678   2.6471
 11.652   2.7398
 11.626   2.7604
 11.600   2.8531
 11.574   2.9046
 11.548   3.0385
 11.522   3.1106
 11.497   3.2651
 11.471   3.4608
 11.446   3.7389
 11.421   3.9655
 11.396   4.3363
 11.371   4.7483
 11.346   5.1603
 11.321   5.1603
 11.297   4.6041
 11.272   3.5226
 11.248   2.6162
 11.223   2.1321
 11.199   1.9879
 11.175   1.8643
 11.151   1.8437
 11.127   1.8540
 11.103   1.9158
 11.079   1.8952
 11.056   1.9055
 11.032   1.8025
 11.009   1.7716
 10.985   1.6892
 10.962   1.6480
 10.939   1.5862
 10.916   1.5038
 10.893   1.4008
 10.870   1.4317
 10.848   1.4111
 10.825   1.4111
 10.802   1.3390
 10.780   1.3596
 10.758   1.3493
 10.735   1.3699
 10.713   1.3287
 10.691   1.3081
 10.669   1.2875
 10.647   1.3184
 10.625   1.3390
 10.604   1.4008
 10.582   1.4111
 10.560   1.4832
 10.539   1.4729
 10.518   1.4832
 10.496   1.4832
 10.475   1.5244
 10.454   1.5038
 10.433   1.5656
 10.412   1.6068
 10.391   1.6686
 10.370   1.7098
 10.350   1.7922
 10.329   1.7613
 10.309   1.7922
 10.288   1.7510
 10.268   1.8025
 10.247   1.8437
 10.227   1.8849
 10.207   1.8540
 10.187   1.8746
 10.167   1.8849
 10.147   1.9673
 10.127   2.0085
 10.108   2.0291
 10.088   2.0291
 10.068   1.9982
 10.049   1.9879
 10.029   2.1115
 10.010   2.1836
  9.991   2.2454
  9.972   2.1836
  9.952   2.1630
  9.933   2.2042
  9.914   2.2351
  9.895   2.2042
  9.877   2.2660
  9.858   2.2660
  9.839   2.3484
  9.821   2.3690
  9.802   2.4102
  9.783   2.4205
  9.765   2.4308
  9.747   2.3793
  9.728   2.4617
  9.710   2.4514
  9.692   2.4926
  9.674   2.4823
  9.656   2.5132
  9.638   2.5338
  9.620   2.5750
  9.602   2.5441
  9.585   2.6162
  9.567   2.6162
  9.549   2.6265
  9.532   2.6162
  9.514   2.6883
  9.497   2.6780
  9.479   2.6471
  9.462   2.6162
  9.445   2.6986
  9.428   2.7295
  9.411   2.7604
  9.394   2.6883
  9.377   2.7398
  9.360   2.7089
  9.343   2.6265
  9.326   2.5235
  9.309   2.6059
  9.293   2.6883
  9.276   2.7604
  9.259   2.7810
  9.243   2.8016
  9.226   2.7810
  9.210   2.7913
  9.194   2.7913
  9.178   2.8634
  9.161   2.8634
  9.145   2.8840
  9.129   2.8428
  9.113   2.8840
  9.097   2.9046
  9.081   2.9355
  9.065   2.8325
  9.049   2.8325
  9.034   2.8737
  9.018   2.9252
  9.002   2.9252
  8.987   2.9664
  8.971   2.9767
  8.956   3.0385
  8.940   2.9767
  8.925   2.9767
  8.909   2.9664
  8.894   2.9664
  8.879   2.9252
  8.864   3.0076
  8.849   2.9561
  8.834   2.9870
  8.819   3.0591
  8.804   3.1003
  8.789   3.0694
  8.774   3.0591
  8.759   3.0076
  8.744   3.0488
  8.730   3.0694
  8.715   3.1003
  8.700   3.0488
  8.686   3.0900
  8.671   3.0694
  8.657   3.1209
  8.642   3.1312
  8.628   3.1106
  8.614   3.0797
  8.599   3.1209
  8.585   3.1518
  8.571   3.1930
  8.557   3.1827
  8.543   3.1621
  8.529   3.1312
  8.515   3.1312
  8.501   3.1518
  8.487   3.1930
  8.473   3.1827
  8.459   3.2445
  8.445   3.2548
  8.431   3.2342
  8.418   3.2342
  8.404   3.2857
  8.391   3.2548
  8.377   3.2857
  8.363   3.2960
  8.350   3.3166
  8.337   3.2960
  8.323   3.3475
  8.310   3.2960
  8.297   3.2754
  8.283   3.2960
  8.270   3.3372
  8.257   3.3372
  8.244   3.3784
  8.231   3.3990
  8.218   3.4093
  8.205   3.3372
  8.192   3.3578
  8.179   3.3681
  8.166   3.3269
  8.153   3.2960
  8.140   3.2857
  8.128   3.2754
  8.115   3.3166
  8.102   3.2857
  8.090   3.3269
  8.077   3.3578
  8.064   3.4093
  8.052   3.4093
  8.039   3.3887
  8.027   3.3166
  8.015   3.2960
  8.002   3.2548
  7.990   3.2651
  7.978   3.2857
  7.965   3.3475
  7.953   3.3475
  7.941   3.3578
  7.929   3.3681
  7.917   3.3990
  7.905   3.3269
  7.893   3.2960
  7.881   3.3475
  7.869   3.3681
  7.857   3.3990
  7.845   3.4196
  7.833   3.3578
  7.821   3.3990
  7.809   3.3784
  7.798   3.3578
  7.786   3.3475
  7.774   3.4093
  7.763   3.4299
  7.751   3.4299
  7.739   3.4093
  7.728   3.4402
  7.716   3.4299
  7.705   3.4608
  7.694   3.5123
  7.682   3.5329
  7.671   3.4711
  7.659   3.4402
  7.648   3.4402
  7.637   3.4814
  7.626   3.5226
  7.614   3.5638
  7.603   3.5535
  7.592   3.5535
  7.581   3.5535
  7.570   3.6050
  7.559   3.5947
  7.548   3.6153
  7.537   3.6153
  7.526   3.6565
  7.515   3.6874
  7.504   3.7286
  7.493   3.6977
  7.483   3.7080
  7.472   3.7286
  7.461   3.7904
  7.450   3.7904
  7.440   3.8522
  7.429   3.8831
  7.418   3.9449
  7.408   3.9655
  7.397   3.9861
  7.387   4.0170
  7.376   4.0891
  7.366   4.1406
  7.355   4.2127
  7.345   4.2333
  7.334   4.3054
  7.324   4.3363
  7.314   4.3878
  7.303   4.4393
  7.293   4.5011
  7.283   4.5217
  7.273   4.6350
  7.263   4.7895
  7.252   4.9337
  7.242   5.0470
  7.232   5.1603
  7.222   5.2633
  7.212   5.4075
  7.202   5.5826
  7.192   5.8298
  7.182   6.0873
  7.172   6.3654
  7.162   6.6641
  7.152   7.0246
  7.143   7.3645
  7.133   7.7559
  7.123   8.0855
  7.113   8.4151
  7.103   8.7653
  7.094   9.0743
  7.084   9.3421
  7.074   9.6202
  7.065   9.8777
  7.055  10.1661
  7.046  10.4339
  7.036  10.7326
  7.026  10.9386
  7.017  11.1652
  7.007  11.4433
  6.998  11.7008
  6.989  11.8965
  6.979  12.0922
  6.970  12.2673
  6.960  12.4527
  6.951  12.6072
  6.942  12.7205
  6.932  12.7411
  6.923  12.6896
  6.914  12.6278
  6.905  12.5145
  6.896  12.3703
  6.886  12.2673
  6.877  12.1334
  6.868  11.9583
  6.859  11.7111
  6.850  11.4330
  6.841  11.1652
  6.832  10.9283
  6.823  10.6193
  6.814  10.1661
  6.805   9.6408
  6.796   9.0537
  6.787   8.4048
  6.778   7.6735
  6.770   7.0555
  6.761   6.4684
  6.752   5.9019
  6.743   5.4075
  6.734   4.9028
  6.726   4.4496
  6.717   4.0170
  6.708   3.6050
  6.700   3.2136
  6.691   2.8634
  6.682   2.5338
  6.674   2.2557
  6.665   2.0188
  6.657   1.8025
  6.648   1.6274
  6.640   1.5038
  6.631   1.3596
  6.623   1.2772
  6.614   1.1948
  6.606   1.0918
  6.597   1.0403
  6.589   1.0300
  6.581   0.9476
  6.572   0.8858
  6.564   0.8652
  6.556   0.8652
  6.547   0.8446
  6.539   0.8240
  6.531   0.7416
  6.523   0.7622
  6.514   0.8137
  6.506   0.8240
  6.498   0.7931
  6.490   0.7725
  6.482   0.7828
  6.474   0.8034
  6.466   0.8034
  6.458   0.8034
  6.450   0.8137
  6.442   0.8549
  6.434   0.8652
  6.426   0.8652
  6.418   0.8240
  6.410   0.8549
  6.402   0.8858
  6.394   0.8755
  6.386   0.8858
  6.378   0.9167
  6.370   0.9270
  6.363   0.9373
  6.355   0.8961
  6.347   0.9270
  6.339   0.9682
  6.332   0.9682
  6.324   0.9579
  6.316   0.9991
  6.308   0.9785
  6.301   0.9991
  6.293   0.9991
  6.286   1.0197
  6.278   1.0403
  6.270   1.0712
  6.263   1.0918
  6.255   1.0609
  6.248   1.0815
  6.240   1.1330
  6.233   1.1536
  6.225   1.1433
  6.218   1.0918
  6.210   1.1227
  6.203   1.1433
  6.195   1.1330
  6.188   1.1433
  6.181   1.1536
  6.173   1.1227
  6.166   1.1124
  6.159   1.1021
  6.151   1.0918
  6.144   1.0712
  6.137   1.0403
  6.130   1.0403
  6.122   1.0506
  6.115   1.0506
  6.108   1.0609
  6.101   1.0609
  6.094   1.0815
  6.086   1.1227
  6.079   1.1227
  6.072   1.1124
  6.065   1.1536
  6.058   1.1536
  6.051   1.1330
  6.044   1.1433
  6.037   1.1536
  6.030   1.1433
  6.023   1.1330
  6.016   1.1021
  6.009   1.0815
  6.002   1.0918
  5.995   1.0506
  5.988   1.0197
  5.981   0.9888
  5.974   0.9682
  5.967   0.9888
  5.960   0.9785
  5.954   0.9167
  5.947   0.8961
  5.940   0.8961
  5.933   0.8343
  5.926   0.8446
  5.920   0.8549
  5.913   0.8446
  5.906   0.8446
  5.899   0.8343
  5.893   0.8343
  5.886   0.8446
  5.879   0.8549
  5.873   0.8755
  5.866   0.8652
  5.859   0.8961
  5.853   0.9064
  5.846   0.9270
  5.840   0.9270
  5.833   0.9064
  5.827   0.8549
  5.820   0.8961
  5.813   0.9270
  5.807   0.9270
  5.800   0.9270
  5.794   0.9373
  5.788   0.9167
  5.781   0.9270
  5.775   0.9064
  5.768   0.9167
  5.762   1.0094
  5.755   1.0403
  5.749   0.9991
  5.743   0.9888
  5.736   0.9888
  5.730   1.0094
  5.724   1.0403
  5.717   1.0712
  5.711   1.0609
  5.705   1.0506
  5.698   1.0506
  5.692   1.0815
  5.686   1.0918
  5.680   1.1124
  5.674   1.1330
  5.667   1.1433
  5.661   1.1227
  5.655   1.1433
  5.649   1.1536
  5.643   1.1845
  5.637   1.1845
  5.630   1.1948
  5.624   1.1948
  5.618   1.2154
  5.612   1.2360
  5.606   1.2257
  5.600   1.2154
  5.594   1.2566
  5.588   1.2669
  5.582   1.2669
  5.576   1.2566
  5.570   1.2566
  5.564   1.2669
  5.558   1.2875
  5.552   1.3081
  5.546   1.3287
  5.540   1.3287
  5.534   1.3596
  5.528   1.3596
  5.523   1.3596
  5.517   1.3699
  5.511   1.4008
  5.505   1.4214
  5.499   1.4523
  5.493   1.4626
  5.487   1.4626
  5.482   1.4626
  5.476   1.4935
  5.470   1.5244
  5.464   1.4935
  5.459   1.4626
  5.453   1.5141
  5.447   1.5656
  5.441   1.5965
  5.436   1.6068
  5.430   1.5862
  5.424   1.5553
  5.419   1.5656
  5.413   1.6171
  5.407   1.6789
  5.402   1.7201
  5.396   1.6995
  5.390   1.6995
  5.385   1.7201
  5.379   1.7407
  5.374   1.7304
  5.368   1.7304
  5.363   1.7819
  5.357   1.8231
  5.352   1.8746
  5.346   1.9158
  5.341   1.9364
  5.335   1.9364
  5.330   1.9158
  5.324   1.9261
  5.319   1.9570
  5.313   1.9467
  5.308   1.9570
  5.302   1.9673
  5.297   1.9982
  5.291   2.0188
  5.286   2.0394
  5.281   2.0497
  5.275   2.0703
  5.270   2.0806
  5.265   2.0806
  5.259   2.0909
  5.254   2.0703
  5.249   2.0703
  5.243   2.1321
  5.238   2.1630
  5.233   2.1836
  5.227   2.1733
  5.222   2.1630
  5.217   2.1836
  5.212   2.2042
  5.206   2.2145
  5.201   2.2248
  5.196   2.2454
  5.191   2.2557
  5.186   2.2660
  5.180   2.3072
  5.175   2.2660
  5.170   2.2557
  5.165   2.2866
  5.160   2.2866
  5.155   2.2969
  5.150   2.2969
  5.145   2.3175
  5.139   2.3278
  5.134   2.3381
  5.129   2.3278
  5.124   2.3381
  5.119   2.3484
  5.114   2.3484
  5.109   2.3690
  5.104   2.3896
  5.099   2.3999
  5.094   2.4102
  5.089   2.3999
  5.084   2.3896
  5.079   2.3999
  5.074   2.4205
  5.069   2.4308
  5.064   2.4720
  5.059   2.4720
  5.054   2.4411
  5.049   2.4720
  5.044   2.4617
  5.040   2.4514
  5.035   2.4926
  5.030   2.5132
  5.025   2.5235
  5.020   2.5544
  5.015   2.5544
  5.010   2.5750
  5.005   2.5647
  5.001   2.5647
  4.996   2.5750
  4.991   2.5750
  4.986   2.5750
  4.981   2.5956
  4.977   2.6059
  4.972   2.5956
  4.967   2.5956
  4.962   2.5956
  4.958   2.6059
  4.953   2.6677
  4.948   2.6574
  4.943   2.6162
  4.939   2.6368
  4.934   2.6471
  4.929   2.6574
  4.925   2.6574
  4.920   2.6471
  4.915   2.6574
  4.911   2.6471
  4.906   2.6780
  4.901   2.6986
  4.897   2.7089
  4.892   2.7192
  4.888   2.6986
  4.883   2.6677
  4.878   2.6883
  4.874   2.6986
  4.869   2.6986
  4.865   2.7192
  4.860   2.7501
  4.856   2.7398
  4.851   2.7295
  4.846   2.7398
  4.842   2.6986
  4.837   2.6780
  4.833   2.6883
  4.828   2.7089
  4.824   2.7398
  4.819   2.7398
  4.815   2.7089
  4.810   2.6883
  4.806   2.6883
  4.802   2.7192
  4.797   2.6986
  4.793   2.7192
  4.788   2.7089
  4.784   2.6780
  4.779   2.6883
  4.775   2.6780
  4.771   2.6883
  4.766   2.6780
  4.762   2.6780
  4.758   2.6883
  4.753   2.7192
  4.749   2.6986
  4.744   2.6883
  4.740   2.6780
  4.736   2.6883
  4.731   2.6986
  4.727   2.6986
  4.723   2.7089
  4.719   2.7089
  4.714   2.6883
  4.710   2.6780
  4.706   2.6368
  4.701   2.6162
  4.697   2.6265
  4.693   2.6368
  4.689   2.6162
  4.684   2.5956
  4.680   2.6059
  4.676   2.5853
  4.672   2.6059
  4.668   2.6471
  4.663   2.6574
  4.659   2.6677
  4.655   2.6471
  4.651   2.5853
  4.647   2.5338
  4.643   2.5235
  4.638   2.5647
  4.634   2.5956
  4.630   2.5956
  4.626   2.5544
  4.622   2.5029
  4.618   2.4926
  4.614   2.5132
  4.610   2.5338
  4.605   2.5132
  4.601   2.4720
  4.597   2.4617
  4.593   2.4617
  4.589   2.4617
  4.585   2.4514
  4.581   2.4720
  4.577   2.4514
  4.573   2.4308
  4.569   2.4102
  4.565   2.3793
  4.561   2.3793
  4.557   2.3690
  4.553   2.3690
  4.549   2.3999
  4.545   2.3999
  4.541   2.3999
  4.537   2.3381
  4.533   2.3484
  4.529   2.3587
  4.525   2.3381
  4.521   2.3072
  4.517   2.2969
  4.513   2.3072
  4.509   2.3072
  4.505   2.2969
  4.502   2.2866
  4.498   2.2866
  4.494   2.3175
  4.490   2.2969
  4.486   2.2969
  4.482   2.3175
  4.478   2.2969
  4.474   2.2557
  4.470   2.2454
  4.467   2.2763
  4.463   2.3072
  4.459   2.2866
  4.455   2.2763
  4.451   2.2557
  4.447   2.2557
  4.444   2.2660
  4.440   2.2557
  4.436   2.2660
  4.432   2.2763
  4.428   2.2969
  4.425   2.3175
  4.421   2.3175
  4.417   2.3072
  4.413   2.2763
  4.410   2.2763
  4.406   2.2660
  4.402   2.3072
  4.398   2.3175
  4.395   2.2763
  4.391   2.2660
  4.387   2.2763
  4.384   2.3072
  4.380   2.2763
  4.376   2.2969
  4.372   2.3072
  4.369   2.3072
  4.365   2.2763
  4.361   2.2454
  4.358   2.2351
  4.354   2.2454
  4.350   2.3175
  4.347   2.3381
  4.343   2.3072
  4.340   2.2866
  4.336   2.2557
  4.332   2.2969
  4.329   2.3278
  4.325   2.3072
  4.321   2.2866
  4.318   2.2763
  4.314   2.2660
  4.311   2.2969
  4.307   2.3484
  4.304   2.3381
  4.300   2.3072
  4.296   2.2969
  4.293   2.3175
  4.289   2.2866
  4.286   2.2866
  4.282   2.2969
  4.279   2.3175
  4.275   2.2866
  4.272   2.2454
  4.268   2.2248
  4.265   2.2454
  4.261   2.2660
  4.258   2.2969
  4.254   2.3175
  4.251   2.3278
  4.247   2.2557
  4.244   2.2145
  4.240   2.2042
  4.237   2.2248
  4.233   2.2763
  4.230   2.2557
  4.226   2.2351
  4.223   2.2660
  4.219   2.2763
  4.216   2.2042
  4.213   2.1836
  4.209   2.2351
  4.206   2.2557
  4.202   2.2351
  4.199   2.1939
  4.196   2.2454
  4.192   2.2557
  4.189   2.2454
  4.185   2.2248
  4.182   2.2042
  4.179   2.2042
  4.175   2.2042
  4.172   2.2042
  4.169   2.1939
  4.165   2.1836
  4.162   2.1836
  4.159   2.2454
  4.155   2.2660
  4.152   2.2145
  4.149   2.2145
  4.145   2.2145
  4.142   2.2248
  4.139   2.2660
  4.135   2.2763
  4.132   2.2042
  4.129   2.1733
  4.126   2.2248
  4.122   2.2351
  4.119   2.2145
  4.116   2.2351
  4.112   2.2145
  4.109   2.2145
  4.106   2.2454
  4.103   2.2557
  4.099   2.2866
  4.096   2.2969
  4.093   2.2557
  4.090   2.2351
  4.086   2.1836
  4.083   2.1424
  4.080   2.1630
  4.077   2.1836
  4.074   2.1630
  4.070   2.1630
  4.067   2.1733
  4.064   2.1939
  4.061   2.1527
  4.058   2.1321
  4.055   2.1218
  4.051   2.1424
  4.048   2.1630
  4.045   2.1527
  4.042   2.1424
  4.039   2.1527
  4.036   2.1733
  4.032   2.1836
  4.029   2.1630
  4.026   2.1321
  4.023   2.1218
  4.020   2.1630
  4.017   2.1527
  4.014   2.1218
  4.011   2.1321
  4.008   2.1733
  4.004   2.1218
  4.001   2.0806
  3.998   2.1115
  3.995   2.1218
  3.992   2.0909
  3.989   2.1012
  3.986   2.0909
  3.983   2.1012
  3.980   2.1115
  3.977   2.1115
  3.974   2.1424
  3.971   2.1527
  3.968   2.1630
  3.965   2.1527
  3.962   2.1424
  3.959   2.2042
  3.956   2.1733
  3.953   2.1836
  3.950   2.1836
  3.947   2.2042
  3.944   2.2145
  3.941   2.2454
  3.938   2.2145
  3.935   2.1939
  3.932   2.1630
  3.929   2.1836
  3.926   2.2248
  3.923   2.2557
  3.920   2.2454
  3.917   2.2660
  3.914   2.2351
  3.911   2.2454
  3.908   2.2763
  3.905   2.2763
  3.902   2.2454
  3.899   2.2557
  3.896   2.2866
  3.893   2.3278
  3.890   2.2660
  3.887   2.2042
  3.884   2.1733
  3.882   2.1939
  3.879   2.2145
  3.876   2.2557
  3.873   2.2763
  3.870   2.2351
  3.867   2.1733
  3.864   2.2454
  3.861   2.2763
  3.858   2.2351
  3.856   2.2660
  3.853   2.3175
  3.850   2.2557
  3.847   2.2557
  3.844   2.2969
  3.841   2.3072
  3.838   2.2351
  3.836   2.2042
  3.833   2.2248
  3.830   2.2145
  3.827   2.1630
  3.824   2.2042
  3.822   2.2969
  3.819   2.3793
  3.816   2.3381
  3.813   2.2969
  3.810   2.2248
  3.807   2.2042
  3.805   2.2145
  3.802   2.1939
  3.799   2.2145
  3.796   2.2454
  3.794   2.2351
  3.791   2.2351
  3.788   2.2042
  3.785   2.2248
  3.782   2.2454
  3.780   2.2660
  3.777   2.3072
  3.774   2.2969
  3.771   2.2557
  3.769   2.2248
  3.766   2.2248
  3.763   2.2866
  3.761   2.2969
  3.758   2.2454
  3.755   2.1836
  3.752   2.2042
  3.750   2.2145
  3.747   2.1630
  3.744   2.1630
  3.742   2.2351
  3.739   2.2351
  3.736   2.2248
  3.733   2.2454
  3.731   2.2557
  3.728   2.2248
  3.725   2.2763
  3.723   2.2351
  3.720   2.2042
  3.717   2.1733
  3.715   2.2145
  3.712   2.2248
  3.709   2.2145
  3.707   2.2145
  3.704   2.2248
  3.702   2.2145
  3.699   2.2454
  3.696   2.2248
  3.694   2.1733
  3.691   2.1527
  3.688   2.1733
  3.686   2.2454
  3.683   2.2866
  3.680   2.1939
  3.678   2.1630
  3.675   2.1939
  3.673   2.2145
  3.670   2.2248
  3.667   2.2351
  3.665   2.2248
  3.662   2.2248
  3.660   2.1733
  3.657   2.1836
  3.655   2.2248
  3.652   2.2042
  3.649   2.2145
  3.647   2.2145
  3.644   2.1733
  3.642   2.1836
  3.639   2.1939
  3.637   2.2145
  3.634   2.2145
  3.632   2.1939
  3.629   2.1836
  3.626   2.1527
  3.624   2.1012
  3.621   2.1424
  3.619   2.1424
  3.616   2.1424
  3.614   2.1836
  3.611   2.2454
  3.609   2.1939
  3.606   2.1836
  3.604   2.1836
  3.601   2.2145
  3.599   2.1939
  3.596   2.1939
  3.594   2.1836
  3.591   2.1939
  3.589   2.1836
