Name: Inderite MgB3O3(OH)5 * 5H2O
Type: Mineral
Class: Borate
Subclass:
Particle Size: Unsieved coarse powder
Sample No.: NMNH 137833
Owner: Smithsonian Institute, National Museum of Nat. History
Wavelength range: 0.40 - 14.05 um
Origin: Kern County, CA

Description: Inderite from Kern County, CA





Measurement: Directional Hemispherical Reflectance
First Column: X
Second Column: Y
X Units: Wavelength (micrometers)
Y Units: Reflectance (percent)
First X Value: 14.05105
Last X Value: 0.40000
Number of X Values: 2756
Additional Information: None

 14.051   2.5235
 14.013   2.3999
 13.975   2.5750
 13.938   2.5853
 13.900   2.7295
 13.863   2.6471
 13.826   2.6986
 13.790   2.6883
 13.753   2.7295
 13.717   2.6986
 13.680   2.7707
 13.644   2.7295
 13.609   2.8222
 13.573   2.8428
 13.538   2.8943
 13.502   2.8531
 13.467   2.9973
 13.432   3.1106
 13.398   3.1621
 13.363   3.0797
 13.329   3.0488
 13.295   2.8428
 13.261   2.5956
 13.227   2.3793
 13.193   2.2866
 13.160   2.1733
 13.126   2.2042
 13.093   2.2351
 13.060   2.3793
 13.027   2.4514
 12.995   2.5750
 12.962   2.6059
 12.930   2.7192
 12.898   2.7604
 12.866   2.8325
 12.834   2.8531
 12.802   2.9355
 12.771   2.9355
 12.739   3.0076
 12.708   3.0797
 12.677   3.1621
 12.646   3.1621
 12.616   3.3166
 12.585   3.4196
 12.554   3.5226
 12.524   3.5226
 12.494   3.5947
 12.464   3.6359
 12.434   3.6874
 12.404   3.5123
 12.375   3.3269
 12.345   3.0282
 12.316   2.7192
 12.287   2.4411
 12.258   2.4411
 12.229   2.3896
 12.200   2.4102
 12.171   2.3999
 12.143   2.4617
 12.115   2.5853
 12.086   2.7810
 12.058   2.7810
 12.030   2.8222
 12.002   2.8428
 11.975   2.9046
 11.947   2.9149
 11.920   3.0385
 11.892   3.0694
 11.865   3.2136
 11.838   3.2754
 11.811   3.3578
 11.784   3.4402
 11.757   3.5638
 11.731   3.5844
 11.704   3.6771
 11.678   3.6771
 11.652   3.7904
 11.626   3.9037
 11.600   4.0170
 11.574   4.0273
 11.548   4.0582
 11.522   4.0067
 11.497   4.0376
 11.471   4.0273
 11.446   4.0994
 11.421   4.0479
 11.396   4.0479
 11.371   4.0788
 11.346   4.1612
 11.321   4.1509
 11.297   4.1509
 11.272   4.1406
 11.248   4.1921
 11.223   4.1715
 11.199   4.2436
 11.175   4.2230
 11.151   4.2436
 11.127   4.2436
 11.103   4.2230
 11.079   4.1612
 11.056   4.1612
 11.032   4.0685
 11.009   4.0582
 10.985   3.9655
 10.962   3.8419
 10.939   3.6977
 10.916   3.6050
 10.893   3.4505
 10.870   3.3681
 10.848   3.2857
 10.825   3.3063
 10.802   3.1930
 10.780   3.1312
 10.758   3.0488
 10.735   3.0282
 10.713   2.9561
 10.691   2.9973
 10.669   3.0179
 10.647   3.0179
 10.625   3.0076
 10.604   3.0385
 10.582   3.0385
 10.560   3.1312
 10.539   3.1621
 10.518   3.2445
 10.496   3.2754
 10.475   3.3372
 10.454   3.3269
 10.433   3.3578
 10.412   3.3578
 10.391   3.4402
 10.370   3.4505
 10.350   3.5020
 10.329   3.5226
 10.309   3.5638
 10.288   3.6050
 10.268   3.7492
 10.247   3.8316
 10.227   3.9243
 10.207   3.9655
 10.187   4.0376
 10.167   4.0685
 10.147   4.1818
 10.127   4.2642
 10.108   4.2642
 10.088   4.2436
 10.068   4.2745
 10.049   4.2333
 10.029   4.2539
 10.010   4.2230
  9.991   4.1818
  9.972   4.1303
  9.952   4.1921
  9.933   4.1921
  9.914   4.2333
  9.895   4.2230
  9.877   4.1818
  9.858   4.0891
  9.839   4.0376
  9.821   3.9449
  9.802   3.8110
  9.783   3.7080
  9.765   3.7080
  9.747   3.5844
  9.728   3.5329
  9.710   3.4711
  9.692   3.5123
  9.674   3.5638
  9.656   3.7183
  9.638   3.8316
  9.620   3.9758
  9.602   4.0994
  9.585   4.3157
  9.567   4.4702
  9.549   4.6041
  9.532   4.6556
  9.514   4.7380
  9.497   4.7380
  9.479   4.7586
  9.462   4.6968
  9.445   4.6453
  9.428   4.5217
  9.411   4.3775
  9.394   4.1406
  9.377   3.9552
  9.360   3.6874
  9.343   3.4299
  9.326   3.1621
  9.309   2.9870
  9.293   2.7604
  9.276   2.5750
  9.259   2.3690
  9.243   2.2145
  9.226   2.0600
  9.210   1.9776
  9.194   1.8952
  9.178   1.8643
  9.161   1.7510
  9.145   1.7098
  9.129   1.5965
  9.113   1.5553
  9.097   1.5038
  9.081   1.4523
  9.065   1.3905
  9.049   1.4008
  9.034   1.3184
  9.018   1.3596
  9.002   1.3699
  8.987   1.3802
  8.971   1.4214
  8.956   1.4935
  8.940   1.4935
  8.925   1.5656
  8.909   1.5553
  8.894   1.6480
  8.879   1.7407
  8.864   1.8849
  8.849   1.9982
  8.834   2.0806
  8.819   2.1115
  8.804   2.1836
  8.789   2.1939
  8.774   2.2454
  8.759   2.2557
  8.744   2.2763
  8.730   2.2145
  8.715   2.2248
  8.700   2.2042
  8.686   2.1630
  8.671   2.0703
  8.657   1.9982
  8.642   1.8849
  8.628   1.8334
  8.614   1.7407
  8.599   1.6789
  8.585   1.6171
  8.571   1.5759
  8.557   1.5347
  8.543   1.5553
  8.529   1.5450
  8.515   1.5656
  8.501   1.5553
  8.487   1.5656
  8.473   1.5759
  8.459   1.6274
  8.445   1.6171
  8.431   1.6171
  8.418   1.5553
  8.404   1.5347
  8.391   1.4626
  8.377   1.4832
  8.363   1.4008
  8.350   1.3596
  8.337   1.3081
  8.323   1.2669
  8.310   1.2051
  8.297   1.1536
  8.283   1.1124
  8.270   1.1227
  8.257   1.1227
  8.244   1.1330
  8.231   1.1433
  8.218   1.1948
  8.205   1.1536
  8.192   1.1845
  8.179   1.2154
  8.166   1.2257
  8.153   1.2360
  8.140   1.3287
  8.128   1.2978
  8.115   1.2669
  8.102   1.2875
  8.090   1.4008
  8.077   1.3905
  8.064   1.3699
  8.052   1.3905
  8.039   1.4317
  8.027   1.4008
  8.015   1.4111
  8.002   1.4317
  7.990   1.5038
  7.978   1.5038
  7.965   1.5038
  7.953   1.4832
  7.941   1.5553
  7.929   1.5450
  7.917   1.5450
  7.905   1.5862
  7.893   1.6377
  7.881   1.6377
  7.869   1.6892
  7.857   1.6995
  7.845   1.6892
  7.833   1.6583
  7.821   1.6892
  7.809   1.6789
  7.798   1.6480
  7.786   1.6171
  7.774   1.5965
  7.763   1.4935
  7.751   1.4317
  7.739   1.4008
  7.728   1.3905
  7.716   1.3596
  7.705   1.3802
  7.694   1.3802
  7.682   1.4111
  7.671   1.4214
  7.659   1.4317
  7.648   1.4420
  7.637   1.4935
  7.626   1.5347
  7.614   1.6171
  7.603   1.6377
  7.592   1.6892
  7.581   1.7304
  7.570   1.7819
  7.559   1.8128
  7.548   1.8849
  7.537   1.9364
  7.526   1.9879
  7.515   2.0188
  7.504   2.0806
  7.493   2.1527
  7.483   2.2660
  7.472   2.3072
  7.461   2.3381
  7.450   2.3999
  7.440   2.4720
  7.429   2.4926
  7.418   2.5029
  7.408   2.4823
  7.397   2.5544
  7.387   2.6471
  7.376   2.6883
  7.366   2.6986
  7.355   2.6780
  7.345   2.6162
  7.334   2.5441
  7.324   2.4308
  7.314   2.2866
  7.303   2.1218
  7.293   1.9879
  7.283   1.8952
  7.273   1.8746
  7.263   1.8128
  7.252   1.8128
  7.242   1.8334
  7.232   1.8643
  7.222   1.8849
  7.212   1.9364
  7.202   1.9879
  7.192   2.0703
  7.182   2.1527
  7.172   2.2660
  7.162   2.3484
  7.152   2.4411
  7.143   2.4514
  7.133   2.4926
  7.123   2.5235
  7.113   2.5132
  7.103   2.4411
  7.094   2.3072
  7.084   2.1218
  7.074   2.0085
  7.065   1.8746
  7.055   1.8128
  7.046   1.6789
  7.036   1.5347
  7.026   1.4317
  7.017   1.3596
  7.007   1.2154
  6.998   1.0918
  6.989   1.0094
  6.979   0.9991
  6.970   0.9682
  6.960   0.9991
  6.951   0.9888
  6.942   0.9888
  6.932   1.0506
  6.923   1.1124
  6.914   1.1124
  6.905   1.1433
  6.896   1.1227
  6.886   1.1021
  6.877   1.0712
  6.868   1.0403
  6.859   0.9682
  6.850   0.9064
  6.841   0.8652
  6.832   0.8343
  6.823   0.7931
  6.814   0.8240
  6.805   0.8446
  6.796   0.8343
  6.787   0.8343
  6.778   0.8755
  6.770   0.8961
  6.761   0.9476
  6.752   0.9270
  6.743   0.9373
  6.734   0.9785
  6.726   1.0300
  6.717   1.0815
  6.708   1.1227
  6.700   1.1227
  6.691   1.1639
  6.682   1.1845
  6.674   1.2360
  6.665   1.2875
  6.657   1.3184
  6.648   1.3493
  6.640   1.4420
  6.631   1.4729
  6.623   1.4935
  6.614   1.4935
  6.606   1.5038
  6.597   1.5038
  6.589   1.5347
  6.581   1.5038
  6.572   1.5244
  6.564   1.5759
  6.556   1.6377
  6.547   1.6377
  6.539   1.6583
  6.531   1.6377
  6.523   1.6480
  6.514   1.6892
  6.506   1.7098
  6.498   1.6995
  6.490   1.6789
  6.482   1.6789
  6.474   1.6686
  6.466   1.6377
  6.458   1.6686
  6.450   1.6892
  6.442   1.7098
  6.434   1.7201
  6.426   1.7304
  6.418   1.7304
  6.410   1.7510
  6.402   1.7819
  6.394   1.7407
  6.386   1.7304
  6.378   1.7716
  6.370   1.7613
  6.363   1.7716
  6.355   1.7922
  6.347   1.8128
  6.339   1.8128
  6.332   1.8334
  6.324   1.8437
  6.316   1.8952
  6.308   1.8952
  6.301   1.9158
  6.293   1.9261
  6.286   1.9570
  6.278   1.9673
  6.270   1.9879
  6.263   1.9879
  6.255   1.9982
  6.248   2.0188
  6.240   2.0703
  6.233   2.0497
  6.225   2.0188
  6.218   2.0394
  6.210   2.0703
  6.203   2.0394
  6.195   2.0600
  6.188   2.0600
  6.181   2.0394
  6.173   1.9673
  6.166   1.9673
  6.159   1.9673
  6.151   1.9467
  6.144   1.9055
  6.137   1.9055
  6.130   1.8849
  6.122   1.8334
  6.115   1.7922
  6.108   1.7716
  6.101   1.6995
  6.094   1.6789
  6.086   1.6583
  6.079   1.6377
  6.072   1.6068
  6.065   1.5553
  6.058   1.4729
  6.051   1.4523
  6.044   1.4626
  6.037   1.4832
  6.030   1.4317
  6.023   1.4008
  6.016   1.3905
  6.009   1.3905
  6.002   1.3802
  5.995   1.3802
  5.988   1.4008
  5.981   1.3905
  5.974   1.3596
  5.967   1.4214
  5.960   1.4214
  5.954   1.4008
  5.947   1.4008
  5.940   1.4008
  5.933   1.4111
  5.926   1.4111
  5.920   1.3699
  5.913   1.3390
  5.906   1.2978
  5.899   1.2978
  5.893   1.2772
  5.886   1.2463
  5.879   1.2154
  5.873   1.2360
  5.866   1.2257
  5.859   1.1948
  5.853   1.1433
  5.846   1.1227
  5.840   1.1330
  5.833   1.1330
  5.827   1.1021
  5.820   1.1124
  5.813   1.1124
  5.807   1.1227
  5.800   1.1124
  5.794   1.1227
  5.788   1.1536
  5.781   1.1742
  5.775   1.1742
  5.768   1.1948
  5.762   1.1948
  5.755   1.2360
  5.749   1.2875
  5.743   1.3184
  5.736   1.3493
  5.730   1.4523
  5.724   1.5553
  5.717   1.6274
  5.711   1.6686
  5.705   1.7304
  5.698   1.7922
  5.692   1.9158
  5.686   2.0085
  5.680   2.0497
  5.674   2.0909
  5.667   2.1424
  5.661   2.1733
  5.655   2.1939
  5.649   2.2557
  5.643   2.3587
  5.637   2.4102
  5.630   2.4823
  5.624   2.5235
  5.618   2.5647
  5.612   2.6059
  5.606   2.6265
  5.600   2.6471
  5.594   2.6986
  5.588   2.7501
  5.582   2.8222
  5.576   2.8428
  5.570   2.8531
  5.564   2.8737
  5.558   2.9046
  5.552   2.9355
  5.546   2.9767
  5.540   3.0282
  5.534   3.0797
  5.528   3.1106
  5.523   3.1209
  5.517   3.1312
  5.511   3.1724
  5.505   3.1930
  5.499   3.2136
  5.493   3.2342
  5.487   3.2857
  5.482   3.3166
  5.476   3.3269
  5.470   3.3372
  5.464   3.3887
  5.459   3.4196
  5.453   3.4402
  5.447   3.4711
  5.441   3.4814
  5.436   3.4917
  5.430   3.5123
  5.424   3.5741
  5.419   3.6462
  5.413   3.6565
  5.407   3.6565
  5.402   3.6874
  5.396   3.7595
  5.390   3.7698
  5.385   3.7595
  5.379   3.7698
  5.374   3.8316
  5.368   3.8728
  5.363   3.8934
  5.357   3.9346
  5.352   4.0067
  5.346   3.9861
  5.341   3.9758
  5.335   3.9964
  5.330   4.0273
  5.324   4.0273
  5.319   4.0376
  5.313   4.0685
  5.308   4.0891
  5.302   4.1303
  5.297   4.1715
  5.291   4.1406
  5.286   4.1406
  5.281   4.1715
  5.275   4.1818
  5.270   4.2127
  5.265   4.2127
  5.259   4.2127
  5.254   4.2745
  5.249   4.3054
  5.243   4.3466
  5.238   4.3569
  5.233   4.3569
  5.227   4.3569
  5.222   4.3569
  5.217   4.3775
  5.212   4.4084
  5.206   4.4084
  5.201   4.4290
  5.196   4.4496
  5.191   4.4702
  5.186   4.4805
  5.180   4.4908
  5.175   4.4599
  5.170   4.4599
  5.165   4.4908
  5.160   4.5217
  5.155   4.5320
  5.150   4.5423
  5.145   4.5732
  5.139   4.5629
  5.134   4.5423
  5.129   4.5423
  5.124   4.5423
  5.119   4.5526
  5.114   4.5732
  5.109   4.5732
  5.104   4.5526
  5.099   4.5629
  5.094   4.5732
  5.089   4.5629
  5.084   4.5732
  5.079   4.5938
  5.074   4.5732
  5.069   4.5629
  5.064   4.5732
  5.059   4.6041
  5.054   4.5835
  5.049   4.5835
  5.044   4.6041
  5.040   4.5938
  5.035   4.5629
  5.030   4.5629
  5.025   4.5732
  5.020   4.5835
  5.015   4.5835
  5.010   4.5629
  5.005   4.5629
  5.001   4.5629
  4.996   4.5526
  4.991   4.5526
  4.986   4.5938
  4.981   4.5938
  4.977   4.5423
  4.972   4.5629
  4.967   4.5835
  4.962   4.5938
  4.958   4.5938
  4.953   4.5938
  4.948   4.5629
  4.943   4.5526
  4.939   4.5423
  4.934   4.5629
  4.929   4.6144
  4.925   4.6453
  4.920   4.6350
  4.915   4.6041
  4.911   4.5732
  4.906   4.5526
  4.901   4.5835
  4.897   4.6041
  4.892   4.5732
  4.888   4.5732
  4.883   4.5629
  4.878   4.5629
  4.874   4.5732
  4.869   4.5732
  4.865   4.5320
  4.860   4.5217
  4.856   4.5526
  4.851   4.5835
  4.846   4.5526
  4.842   4.5320
  4.837   4.5423
  4.833   4.5526
  4.828   4.5629
  4.824   4.5423
  4.819   4.5114
  4.815   4.5320
  4.810   4.5423
  4.806   4.5423
  4.802   4.5526
  4.797   4.5629
  4.793   4.5629
  4.788   4.5732
  4.784   4.5629
  4.779   4.5526
  4.775   4.5423
  4.771   4.5217
  4.766   4.5526
  4.762   4.5732
  4.758   4.5732
  4.753   4.5938
  4.749   4.6350
  4.744   4.6453
  4.740   4.6350
  4.736   4.6041
  4.731   4.6144
  4.727   4.6350
  4.723   4.5938
  4.719   4.5732
  4.714   4.5732
  4.710   4.5732
  4.706   4.5732
  4.701   4.5732
  4.697   4.5629
  4.693   4.5423
  4.689   4.5320
  4.684   4.5011
  4.680   4.4805
  4.676   4.4908
  4.672   4.4908
  4.668   4.4805
  4.663   4.4393
  4.659   4.4290
  4.655   4.4599
  4.651   4.4187
  4.647   4.4187
  4.643   4.4187
  4.638   4.4084
  4.634   4.4290
  4.630   4.4599
  4.626   4.4496
  4.622   4.4393
  4.618   4.4496
  4.614   4.4702
  4.610   4.4805
  4.605   4.4496
  4.601   4.4084
  4.597   4.4187
  4.593   4.4496
  4.589   4.4290
  4.585   4.4187
  4.581   4.4084
  4.577   4.3878
  4.573   4.3878
  4.569   4.3981
  4.565   4.3466
  4.561   4.3260
  4.557   4.3878
  4.553   4.3672
  4.549   4.3054
  4.545   4.3157
  4.541   4.3466
  4.537   4.3157
  4.533   4.2848
  4.529   4.2642
  4.525   4.3054
  4.521   4.3363
  4.517   4.3157
  4.513   4.2951
  4.509   4.2745
  4.505   4.2951
  4.502   4.3157
  4.498   4.2848
  4.494   4.2436
  4.490   4.2127
  4.486   4.2024
  4.482   4.1818
  4.478   4.2024
  4.474   4.2333
  4.470   4.2333
  4.467   4.2230
  4.463   4.2127
  4.459   4.1612
  4.455   4.1612
  4.451   4.1509
  4.447   4.1612
  4.444   4.1509
  4.440   4.1406
  4.436   4.0994
  4.432   4.0788
  4.428   4.1097
  4.425   4.1097
  4.421   4.0685
  4.417   4.0891
  4.413   4.1303
  4.410   4.1406
  4.406   4.0994
  4.402   4.0582
  4.398   4.0685
  4.395   4.0582
  4.391   4.0479
  4.387   4.0479
  4.384   4.0582
  4.380   4.0376
  4.376   4.0170
  4.372   3.9861
  4.369   3.9758
  4.365   3.9964
  4.361   3.9964
  4.358   3.9655
  4.354   3.9449
  4.350   3.9552
  4.347   3.9449
  4.343   3.9243
  4.340   3.8831
  4.336   3.8831
  4.332   3.9037
  4.329   3.9243
  4.325   3.9140
  4.321   3.9346
  4.318   3.9346
  4.314   3.9243
  4.311   3.8934
  4.307   3.9037
  4.304   3.9140
  4.300   3.9140
  4.296   3.8625
  4.293   3.8625
  4.289   3.9140
  4.286   3.9552
  4.282   3.9037
  4.279   3.8522
  4.275   3.8831
  4.272   3.9243
  4.268   3.9346
  4.265   3.9140
  4.261   3.8419
  4.258   3.8110
  4.254   3.8110
  4.251   3.8625
  4.247   3.9140
  4.244   3.9552
  4.240   4.0170
  4.237   4.0376
  4.233   4.0170
  4.230   4.0067
  4.226   4.0170
  4.223   4.0170
  4.219   3.9758
  4.216   3.9758
  4.213   3.9346
  4.209   3.8625
  4.206   3.8522
  4.202   3.9140
  4.199   3.8934
  4.196   3.8007
  4.192   3.8007
  4.189   3.8522
  4.185   3.8831
  4.182   3.9140
  4.179   3.9758
  4.175   3.9758
  4.172   3.9552
  4.169   3.9449
  4.165   3.9449
  4.162   3.9758
  4.159   3.9861
  4.155   4.0170
  4.152   4.0479
  4.149   4.0479
  4.145   4.0582
  4.142   4.0994
  4.139   4.0994
  4.135   4.0685
  4.132   4.0788
  4.129   4.1303
  4.126   4.1200
  4.122   4.1406
  4.119   4.1715
  4.116   4.2024
  4.112   4.2230
  4.109   4.2539
  4.106   4.2333
  4.103   4.2024
  4.099   4.2024
  4.096   4.2333
  4.093   4.2230
  4.090   4.2539
  4.086   4.2848
  4.083   4.3054
  4.080   4.3363
  4.077   4.3569
  4.074   4.3569
  4.070   4.3569
  4.067   4.3569
  4.064   4.3569
  4.061   4.3466
  4.058   4.3569
  4.055   4.3569
  4.051   4.3260
  4.048   4.2951
  4.045   4.3466
  4.042   4.3878
  4.039   4.3878
  4.036   4.3363
  4.032   4.3569
  4.029   4.3775
  4.026   4.3672
  4.023   4.3569
  4.020   4.3466
  4.017   4.3466
  4.014   4.3775
  4.011   4.3363
  4.008   4.2951
  4.004   4.2745
  4.001   4.2436
  3.998   4.2436
  3.995   4.2333
  3.992   4.2333
  3.989   4.2642
  3.986   4.2642
  3.983   4.2642
  3.980   4.2745
  3.977   4.2230
  3.974   4.1921
  3.971   4.2539
  3.968   4.2642
  3.965   4.2642
  3.962   4.2848
  3.959   4.2642
  3.956   4.2745
  3.953   4.3054
  3.950   4.2951
  3.947   4.3260
  3.944   4.3157
  3.941   4.2951
  3.938   4.3672
  3.935   4.4290
  3.932   4.3672
  3.929   4.3363
  3.926   4.3569
  3.923   4.3569
  3.920   4.3466
  3.917   4.3981
  3.914   4.4084
  3.911   4.4702
  3.908   4.4805
  3.905   4.4805
  3.902   4.4805
  3.899   4.4599
  3.896   4.4702
  3.893   4.5526
  3.890   4.5732
  3.887   4.5629
  3.884   4.5938
  3.882   4.6247
  3.879   4.6144
  3.876   4.6247
  3.873   4.5938
  3.870   4.6247
  3.867   4.6350
  3.864   4.6453
  3.861   4.6350
  3.858   4.6453
  3.856   4.6762
  3.853   4.7380
  3.850   4.7380
  3.847   4.6968
  3.844   4.6762
  3.841   4.7174
  3.838   4.7071
  3.836   4.7586
  3.833   4.7689
  3.830   4.7277
  3.827   4.7071
  3.824   4.7277
  3.822   4.7277
  3.819   4.7174
  3.816   4.6968
  3.813   4.7071
  3.810   4.6968
  3.807   4.6968
  3.805   4.7071
  3.802   4.7483
  3.799   4.7071
  3.796   4.6865
  3.794   4.7071
  3.791   4.7071
  3.788   4.6865
  3.785   4.7174
  3.782   4.7174
  3.780   4.6556
  3.777   4.5938
  3.774   4.6247
  3.771   4.6247
  3.769   4.6350
  3.766   4.5835
  3.763   4.5320
  3.761   4.5526
  3.758   4.5629
  3.755   4.5526
  3.752   4.5320
  3.750   4.5217
  3.747   4.5011
  3.744   4.4908
  3.742   4.5320
  3.739   4.5217
  3.736   4.4702
  3.733   4.4496
  3.731   4.4599
  3.728   4.3981
  3.725   4.3569
  3.723   4.3775
  3.720   4.4084
  3.717   4.3775
  3.715   4.3569
  3.712   4.2951
  3.709   4.2745
  3.707   4.2539
  3.704   4.2436
  3.702   4.2436
  3.699   4.2127
  3.696   4.1921
  3.694   4.2127
  3.691   4.2024
  3.688   4.1612
  3.686   4.1509
  3.683   4.1715
  3.680   4.1200
  3.678   4.0891
  3.675   3.9964
  3.673   4.0170
  3.670   4.0891
  3.667   4.0479
  3.665   3.9758
  3.662   3.9655
  3.660   3.9552
  3.657   3.9346
  3.655   3.9037
  3.652   3.9346
  3.649   3.8728
  3.647   3.8316
  3.644   3.8625
  3.642   3.8625
  3.639   3.8522
  3.637   3.8522
  3.634   3.8110
  3.632   3.8316
  3.629   3.8625
  3.626   3.8728
  3.624   3.8007
  3.621   3.7801
  3.619   3.7698
  3.616   3.7080
  3.614   3.6153
  3.611   3.6462
  3.609   3.6668
  3.606   3.6771
  3.604   3.7080
  3.601   3.7183
  3.599   3.7080
  3.596   3.7080
  3.594   3.6668
  3.591   3.6462
  3.589   3.6256
  3.586   3.6668
