Name: Kaliborite KHMg2B12O16(OH)10 * 4H2O
Type: Mineral
Class: Borate
Subclass: None
Particle Size: Unsieved coarse powder
Sample No.: NMNH 160075
Owner: Smithsonian Institute, National Museum of Nat. History
Wavelength range: 0.40 - 14.05 um
Origin: Spain

Description: Kaliborite from Spain





Measurement: Directional Hemispherical Reflectance
First Column: X
Second Column: Y
X Units: Wavelength (micrometers)
Y Units: Reflectance (percent)
First X Value: 14.05105
Last X Value: 0.40000
Number of X Values: 2756
Additional Information: None

 14.051   2.7192
 14.013   2.7810
 13.975   3.0900
 13.938   3.1827
 13.900   3.3372
 13.863   3.4093
 13.826   3.5123
 13.790   3.4917
 13.753   3.6050
 13.717   3.6153
 13.680   3.5329
 13.644   3.3269
 13.609   3.1930
 13.573   2.9767
 13.538   2.8222
 13.502   2.6883
 13.467   2.6780
 13.432   2.6883
 13.398   2.7707
 13.363   2.7398
 13.329   2.8119
 13.295   2.8943
 13.261   3.0179
 13.227   2.9870
 13.193   2.9149
 13.160   2.6780
 13.126   2.4308
 13.093   2.2145
 13.060   2.2763
 13.027   2.3381
 12.995   2.4617
 12.962   2.5235
 12.930   2.6471
 12.898   2.7089
 12.866   2.8016
 12.834   2.7913
 12.802   2.8531
 12.771   2.8531
 12.739   2.9664
 12.708   2.9767
 12.677   2.9664
 12.646   2.9458
 12.616   3.0076
 12.585   3.0076
 12.554   2.9561
 12.524   2.8531
 12.494   2.8737
 12.464   2.7913
 12.434   2.7192
 12.404   2.5750
 12.375   2.5647
 12.345   2.5647
 12.316   2.5441
 12.287   2.4926
 12.258   2.5750
 12.229   2.6162
 12.200   2.7089
 12.171   2.7913
 12.143   2.9046
 12.115   2.9458
 12.086   3.0694
 12.058   3.1003
 12.030   3.1209
 12.002   3.0488
 11.975   3.0900
 11.947   3.1930
 11.920   3.2754
 11.892   3.3166
 11.865   3.4196
 11.838   3.5432
 11.811   3.7595
 11.784   3.9346
 11.757   4.1200
 11.731   4.1612
 11.704   4.2642
 11.678   4.3878
 11.652   4.4599
 11.626   4.4393
 11.600   4.5526
 11.574   4.6041
 11.548   4.7174
 11.522   4.7689
 11.497   4.8101
 11.471   4.7895
 11.446   4.7998
 11.421   4.8307
 11.396   4.9234
 11.371   4.9131
 11.346   4.8616
 11.321   4.7998
 11.297   4.7998
 11.272   4.7998
 11.248   4.9028
 11.223   4.8410
 11.199   4.7792
 11.175   4.7586
 11.151   4.7483
 11.127   4.6350
 11.103   4.5629
 11.079   4.5217
 11.056   4.6762
 11.032   4.8410
 11.009   4.9749
 10.985   4.9749
 10.962   5.0264
 10.939   5.0573
 10.916   5.0779
 10.893   5.0367
 10.870   5.0058
 10.848   4.9028
 10.825   4.8204
 10.802   4.6762
 10.780   4.4290
 10.758   4.0479
 10.735   3.6874
 10.713   3.2857
 10.691   2.9355
 10.669   2.6265
 10.647   2.4926
 10.625   2.3999
 10.604   2.3484
 10.582   2.3587
 10.560   2.5235
 10.539   2.6162
 10.518   2.6780
 10.496   2.7707
 10.475   3.0179
 10.454   3.1930
 10.433   3.4196
 10.412   3.6462
 10.391   3.8522
 10.370   3.9655
 10.350   4.0685
 10.329   4.1303
 10.309   4.1509
 10.288   4.0582
 10.268   3.9655
 10.247   3.8110
 10.227   3.7183
 10.207   3.6256
 10.187   3.5844
 10.167   3.6359
 10.147   3.7801
 10.127   3.8110
 10.108   3.8316
 10.088   3.7801
 10.068   3.7904
 10.049   3.7080
 10.029   3.5432
 10.010   3.4093
  9.991   3.3578
  9.972   3.2754
  9.952   3.3166
  9.933   3.3681
  9.914   3.4196
  9.895   3.4917
  9.877   3.6153
  9.858   3.6359
  9.839   3.6256
  9.821   3.6359
  9.802   3.7286
  9.783   3.7904
  9.765   3.8728
  9.747   3.9552
  9.728   4.0788
  9.710   4.1406
  9.692   4.2024
  9.674   4.2642
  9.656   4.3981
  9.638   4.4702
  9.620   4.5320
  9.602   4.5835
  9.585   4.6556
  9.567   4.7174
  9.549   4.8410
  9.532   4.8719
  9.514   4.9028
  9.497   4.9543
  9.479   5.0058
  9.462   4.9131
  9.445   4.8513
  9.428   4.6968
  9.411   4.5526
  9.394   4.3466
  9.377   4.1406
  9.360   3.8522
  9.343   3.6462
  9.326   3.3990
  9.309   3.1827
  9.293   2.9664
  9.276   2.8119
  9.259   2.6368
  9.243   2.4514
  9.226   2.2351
  9.210   2.1321
  9.194   2.0394
  9.178   2.0188
  9.161   1.9673
  9.145   2.0394
  9.129   2.1218
  9.113   2.2248
  9.097   2.3690
  9.081   2.5647
  9.065   2.6368
  9.049   2.7398
  9.034   2.8222
  9.018   2.9149
  9.002   2.8428
  8.987   2.7089
  8.971   2.5544
  8.956   2.4514
  8.940   2.2969
  8.925   2.1836
  8.909   1.9982
  8.894   1.8952
  8.879   1.8128
  8.864   1.7510
  8.849   1.6377
  8.834   1.5244
  8.819   1.3493
  8.804   1.3287
  8.789   1.3081
  8.774   1.3081
  8.759   1.2154
  8.744   1.1742
  8.730   1.1536
  8.715   1.2051
  8.700   1.2154
  8.686   1.2463
  8.671   1.2669
  8.657   1.3699
  8.642   1.4523
  8.628   1.4832
  8.614   1.5244
  8.599   1.6171
  8.585   1.6274
  8.571   1.7201
  8.557   1.7716
  8.543   1.8025
  8.529   1.8437
  8.515   1.9055
  8.501   1.9158
  8.487   1.9467
  8.473   1.9261
  8.459   1.9158
  8.445   1.8437
  8.431   1.7510
  8.418   1.6171
  8.404   1.5656
  8.391   1.4729
  8.377   1.3699
  8.363   1.2772
  8.350   1.2463
  8.337   1.2360
  8.323   1.2669
  8.310   1.2566
  8.297   1.3081
  8.283   1.3081
  8.270   1.2978
  8.257   1.3184
  8.244   1.3802
  8.231   1.3596
  8.218   1.3699
  8.205   1.3699
  8.192   1.3699
  8.179   1.3287
  8.166   1.3390
  8.153   1.3390
  8.140   1.3699
  8.128   1.4008
  8.115   1.3905
  8.102   1.3699
  8.090   1.4626
  8.077   1.5141
  8.064   1.6274
  8.052   1.7201
  8.039   1.7407
  8.027   1.7819
  8.015   1.8952
  8.002   1.9364
  7.990   1.9982
  7.978   2.0497
  7.965   2.1424
  7.953   2.1527
  7.941   2.1321
  7.929   2.1321
  7.917   2.1733
  7.905   2.1836
  7.893   2.1939
  7.881   2.2351
  7.869   2.3484
  7.857   2.4926
  7.845   2.6986
  7.833   2.8634
  7.821   3.0488
  7.809   3.2445
  7.798   3.4608
  7.786   3.6977
  7.774   3.9861
  7.763   4.2127
  7.751   4.3981
  7.739   4.5114
  7.728   4.6247
  7.716   4.6556
  7.705   4.5732
  7.694   4.4187
  7.682   4.2539
  7.671   4.0170
  7.659   3.7080
  7.648   3.4093
  7.637   3.1930
  7.626   2.9973
  7.614   2.8840
  7.603   2.8016
  7.592   2.7707
  7.581   2.7707
  7.570   2.8428
  7.559   2.9252
  7.548   3.0591
  7.537   3.1930
  7.526   3.3578
  7.515   3.4814
  7.504   3.5947
  7.493   3.6874
  7.483   3.8316
  7.472   3.8831
  7.461   3.9140
  7.450   3.9140
  7.440   3.9037
  7.429   3.8625
  7.418   3.8213
  7.408   3.7801
  7.397   3.7904
  7.387   3.8110
  7.376   3.8625
  7.366   3.9037
  7.355   3.9964
  7.345   4.0891
  7.334   4.1921
  7.324   4.2539
  7.314   4.2848
  7.303   4.2230
  7.293   4.1200
  7.283   3.9552
  7.273   3.8831
  7.263   3.7904
  7.252   3.6153
  7.242   3.4299
  7.232   3.2857
  7.222   3.1415
  7.212   3.0694
  7.202   2.9458
  7.192   2.8222
  7.182   2.7501
  7.172   2.6574
  7.162   2.4823
  7.152   2.3587
  7.143   2.2145
  7.133   2.1218
  7.123   2.0806
  7.113   2.0497
  7.103   1.9570
  7.094   1.9158
  7.084   1.9055
  7.074   1.9158
  7.065   1.9055
  7.055   1.9261
  7.046   1.8952
  7.036   1.9261
  7.026   1.9467
  7.017   1.9673
  7.007   1.9776
  6.998   1.9879
  6.989   1.9673
  6.979   1.9982
  6.970   2.0085
  6.960   2.0291
  6.951   2.0188
  6.942   2.0085
  6.932   1.9776
  6.923   1.9673
  6.914   1.9467
  6.905   1.9261
  6.896   1.9158
  6.886   1.9055
  6.877   1.8643
  6.868   1.8643
  6.859   1.8231
  6.850   1.7407
  6.841   1.6583
  6.832   1.6171
  6.823   1.5450
  6.814   1.4420
  6.805   1.3802
  6.796   1.3699
  6.787   1.3596
  6.778   1.3493
  6.770   1.2978
  6.761   1.2978
  6.752   1.2875
  6.743   1.2669
  6.734   1.2257
  6.726   1.2154
  6.717   1.2051
  6.708   1.2051
  6.700   1.1845
  6.691   1.1433
  6.682   1.1021
  6.674   1.1124
  6.665   1.1124
  6.657   1.1021
  6.648   1.0815
  6.640   1.0918
  6.631   1.1021
  6.623   1.1021
  6.614   1.0815
  6.606   1.0712
  6.597   1.0712
  6.589   1.0918
  6.581   1.0506
  6.572   1.0094
  6.564   0.9270
  6.556   0.8652
  6.547   0.7828
  6.539   0.7107
  6.531   0.6489
  6.523   0.6180
  6.514   0.5768
  6.506   0.5459
  6.498   0.5253
  6.490   0.5047
  6.482   0.4841
  6.474   0.4944
  6.466   0.4944
  6.458   0.4841
  6.450   0.4429
  6.442   0.4841
  6.434   0.5047
  6.426   0.4944
  6.418   0.4841
  6.410   0.5047
  6.402   0.4944
  6.394   0.4738
  6.386   0.4429
  6.378   0.4635
  6.370   0.4944
  6.363   0.5253
  6.355   0.4738
  6.347   0.4635
  6.339   0.4841
  6.332   0.5150
  6.324   0.5356
  6.316   0.5459
  6.308   0.5562
  6.301   0.5665
  6.293   0.5562
  6.286   0.5665
  6.278   0.5768
  6.270   0.5665
  6.263   0.5356
  6.255   0.5253
  6.248   0.5459
  6.240   0.5459
  6.233   0.5356
  6.225   0.5768
  6.218   0.5459
  6.210   0.5253
  6.203   0.5356
  6.195   0.5356
  6.188   0.5459
  6.181   0.5665
  6.173   0.5253
  6.166   0.5356
  6.159   0.5356
  6.151   0.5459
  6.144   0.5150
  6.137   0.5047
  6.130   0.5253
  6.122   0.5356
  6.115   0.5253
  6.108   0.5459
  6.101   0.5665
  6.094   0.5974
  6.086   0.6180
  6.079   0.6077
  6.072   0.5768
  6.065   0.5768
  6.058   0.5871
  6.051   0.5871
  6.044   0.5768
  6.037   0.6077
  6.030   0.6077
  6.023   0.6386
  6.016   0.6180
  6.009   0.5974
  6.002   0.5871
  5.995   0.6180
  5.988   0.6283
  5.981   0.6283
  5.974   0.6180
  5.967   0.6180
  5.960   0.5974
  5.954   0.6077
  5.947   0.6489
  5.940   0.6798
  5.933   0.6489
  5.926   0.6386
  5.920   0.6489
  5.913   0.6592
  5.906   0.6592
  5.899   0.6798
  5.893   0.7107
  5.886   0.7313
  5.879   0.7210
  5.873   0.7416
  5.866   0.7313
  5.859   0.7416
  5.853   0.7416
  5.846   0.7416
  5.840   0.7210
  5.833   0.7416
  5.827   0.7416
  5.820   0.7931
  5.813   0.8137
  5.807   0.7828
  5.800   0.7622
  5.794   0.7828
  5.788   0.7931
  5.781   0.8034
  5.775   0.8034
  5.768   0.8137
  5.762   0.7931
  5.755   0.7828
  5.749   0.8034
  5.743   0.8343
  5.736   0.8549
  5.730   0.8652
  5.724   0.8549
  5.717   0.8652
  5.711   0.8858
  5.705   0.8755
  5.698   0.8858
  5.692   0.8858
  5.686   0.8858
  5.680   0.8755
  5.674   0.8755
  5.667   0.9064
  5.661   0.9270
  5.655   0.9373
  5.649   0.9167
  5.643   0.9373
  5.637   0.9270
  5.630   0.9167
  5.624   0.9064
  5.618   0.9270
  5.612   0.9579
  5.606   0.9785
  5.600   0.9888
  5.594   1.0094
  5.588   1.0300
  5.582   1.0506
  5.576   1.0403
  5.570   1.0506
  5.564   1.0506
  5.558   1.0300
  5.552   1.0403
  5.546   1.0403
  5.540   1.0506
  5.534   1.0815
  5.528   1.1021
  5.523   1.1021
  5.517   1.0609
  5.511   1.0609
  5.505   1.0815
  5.499   1.1330
  5.493   1.1124
  5.487   1.1124
  5.482   1.1124
  5.476   1.1124
  5.470   1.1433
  5.464   1.1536
  5.459   1.1536
  5.453   1.1639
  5.447   1.1742
  5.441   1.1845
  5.436   1.1845
  5.430   1.1845
  5.424   1.1845
  5.419   1.1948
  5.413   1.1742
  5.407   1.1948
  5.402   1.2154
  5.396   1.2257
  5.390   1.2463
  5.385   1.2566
  5.379   1.2463
  5.374   1.2772
  5.368   1.2772
  5.363   1.2669
  5.357   1.2669
  5.352   1.2772
  5.346   1.2669
  5.341   1.2772
  5.335   1.2772
  5.330   1.2875
  5.324   1.2978
  5.319   1.2978
  5.313   1.2875
  5.308   1.3081
  5.302   1.3390
  5.297   1.3287
  5.291   1.3390
  5.286   1.3905
  5.281   1.4111
  5.275   1.3699
  5.270   1.3493
  5.265   1.3802
  5.259   1.4111
  5.254   1.4317
  5.249   1.4317
  5.243   1.4729
  5.238   1.4420
  5.233   1.4214
  5.227   1.4523
  5.222   1.4626
  5.217   1.4626
  5.212   1.4729
  5.206   1.4420
  5.201   1.4214
  5.196   1.4317
  5.191   1.4420
  5.186   1.4626
  5.180   1.4935
  5.175   1.4935
  5.170   1.4729
  5.165   1.4832
  5.160   1.5244
  5.155   1.5347
  5.150   1.5656
  5.145   1.5656
  5.139   1.5450
  5.134   1.5141
  5.129   1.5347
  5.124   1.5553
  5.119   1.5553
  5.114   1.5244
  5.109   1.5347
  5.104   1.5759
  5.099   1.5965
  5.094   1.5656
  5.089   1.5965
  5.084   1.6274
  5.079   1.6274
  5.074   1.6171
  5.069   1.5862
  5.064   1.5862
  5.059   1.6377
  5.054   1.6068
  5.049   1.5759
  5.044   1.5965
  5.040   1.6274
  5.035   1.6274
  5.030   1.6171
  5.025   1.5965
  5.020   1.5862
  5.015   1.6068
  5.010   1.6274
  5.005   1.6377
  5.001   1.6583
  4.996   1.6789
  4.991   1.6686
  4.986   1.6377
  4.981   1.6274
  4.977   1.6171
  4.972   1.6274
  4.967   1.6583
  4.962   1.6480
  4.958   1.6171
  4.953   1.5965
  4.948   1.6171
  4.943   1.6377
  4.939   1.6377
  4.934   1.6171
  4.929   1.6377
  4.925   1.6789
  4.920   1.6686
  4.915   1.6377
  4.911   1.6686
  4.906   1.6995
  4.901   1.6583
  4.897   1.6068
  4.892   1.6274
  4.888   1.6789
  4.883   1.6892
  4.878   1.6892
  4.874   1.6686
  4.869   1.6995
  4.865   1.7201
  4.860   1.6995
  4.856   1.6789
  4.851   1.6789
  4.846   1.6892
  4.842   1.6995
  4.837   1.6995
  4.833   1.6892
  4.828   1.7201
  4.824   1.7304
  4.819   1.6892
  4.815   1.6995
  4.810   1.7407
  4.806   1.7510
  4.802   1.7510
  4.797   1.7304
  4.793   1.7304
  4.788   1.7510
  4.784   1.7716
  4.779   1.7510
  4.775   1.7304
  4.771   1.7613
  4.766   1.7922
  4.762   1.8025
  4.758   1.8025
  4.753   1.8128
  4.749   1.8334
  4.744   1.8231
  4.740   1.8334
  4.736   1.8231
  4.731   1.8025
  4.727   1.8334
  4.723   1.8540
  4.719   1.8746
  4.714   1.8849
  4.710   1.8540
  4.706   1.8334
  4.701   1.8334
  4.697   1.8540
  4.693   1.8643
  4.689   1.8540
  4.684   1.8746
  4.680   1.8643
  4.676   1.8643
  4.672   1.8952
  4.668   1.9158
  4.663   1.8643
  4.659   1.8334
  4.655   1.8540
  4.651   1.8643
  4.647   1.8437
  4.643   1.8437
  4.638   1.8540
  4.634   1.8746
  4.630   1.9158
  4.626   1.8952
  4.622   1.8643
  4.618   1.8849
  4.614   1.8952
  4.610   1.9158
  4.605   1.9055
  4.601   1.8849
  4.597   1.8849
  4.593   1.8643
  4.589   1.8746
  4.585   1.8849
  4.581   1.8746
  4.577   1.8746
  4.573   1.8849
  4.569   1.9158
  4.565   1.9261
  4.561   1.9158
  4.557   1.9158
  4.553   1.9055
  4.549   1.9055
  4.545   1.9261
  4.541   1.9364
  4.537   1.9158
  4.533   1.9261
  4.529   1.9467
  4.525   1.9364
  4.521   1.9055
  4.517   1.8643
  4.513   1.8540
  4.509   1.8952
  4.505   1.8746
  4.502   1.8540
  4.498   1.8437
  4.494   1.8540
  4.490   1.8643
  4.486   1.8540
  4.482   1.8643
  4.478   1.8746
  4.474   1.8540
  4.470   1.8746
  4.467   1.8540
  4.463   1.8643
  4.459   1.8746
  4.455   1.8437
  4.451   1.8025
  4.447   1.8334
  4.444   1.8746
  4.440   1.8746
  4.436   1.8746
  4.432   1.9055
  4.428   1.8849
  4.425   1.8849
  4.421   1.8849
  4.417   1.8746
  4.413   1.8643
  4.410   1.8231
  4.406   1.8334
  4.402   1.8746
  4.398   1.8643
  4.395   1.8540
  4.391   1.8746
  4.387   1.8746
  4.384   1.8746
  4.380   1.9055
  4.376   1.8849
  4.372   1.8437
  4.369   1.8231
  4.365   1.8540
  4.361   1.9055
  4.358   1.9467
  4.354   1.9261
  4.350   1.9158
  4.347   1.9364
  4.343   1.9158
  4.340   1.9364
  4.336   1.9879
  4.332   1.9776
  4.329   1.9570
  4.325   1.9879
  4.321   2.0188
  4.318   1.9879
  4.314   1.9570
  4.311   1.9570
  4.307   1.9673
  4.304   1.9879
  4.300   2.0085
  4.296   2.0188
  4.293   2.0291
  4.289   2.0497
  4.286   2.0600
  4.282   2.0291
  4.279   2.0703
  4.275   2.0909
  4.272   2.0600
  4.268   2.0394
  4.265   2.0188
  4.261   2.0188
  4.258   2.0703
  4.254   2.0909
  4.251   2.1321
  4.247   2.1321
  4.244   2.1218
  4.240   2.1218
  4.237   2.1218
  4.233   2.1218
  4.230   2.1424
  4.226   2.1218
  4.223   2.0497
  4.219   2.0703
  4.216   2.0909
  4.213   2.0497
  4.209   2.0394
  4.206   2.0497
  4.202   2.0497
  4.199   2.0806
  4.196   2.1218
  4.192   2.1012
  4.189   2.0703
  4.185   2.0703
  4.182   2.0600
  4.179   2.0600
  4.175   2.0497
  4.172   2.0085
  4.169   2.0291
  4.165   2.0394
  4.162   2.0497
  4.159   2.0600
  4.155   2.0806
  4.152   2.0703
  4.149   2.0497
  4.145   1.9982
  4.142   2.0188
  4.139   2.0291
  4.135   1.9982
  4.132   1.9673
  4.129   2.0291
  4.126   1.9879
  4.122   1.9467
  4.119   1.9776
  4.116   1.9982
  4.112   1.9982
  4.109   1.9364
  4.106   1.9467
  4.103   2.0085
  4.099   1.9879
  4.096   1.9673
  4.093   1.9673
  4.090   1.9467
  4.086   1.9261
  4.083   1.9364
  4.080   1.9055
  4.077   1.8849
  4.074   1.9158
  4.070   1.9055
  4.067   1.9055
  4.064   1.9158
  4.061   1.9055
  4.058   1.9055
  4.055   1.8746
  4.051   1.8540
  4.048   1.8643
  4.045   1.8334
  4.042   1.8437
  4.039   1.8334
  4.036   1.8334
  4.032   1.8849
  4.029   1.8849
  4.026   1.9158
  4.023   1.9055
  4.020   1.8952
  4.017   1.8746
  4.014   1.8437
  4.011   1.8025
  4.008   1.8437
  4.004   1.8746
  4.001   1.9261
  3.998   1.9158
  3.995   1.8643
  3.992   1.8952
  3.989   1.9570
  3.986   1.9673
  3.983   1.9776
  3.980   1.9776
  3.977   1.9467
  3.974   1.8952
  3.971   1.9467
  3.968   2.0085
  3.965   1.9982
  3.962   2.0188
  3.959   2.0497
  3.956   2.0909
  3.953   2.1012
  3.950   2.0703
  3.947   2.0806
  3.944   2.0909
  3.941   2.0806
  3.938   2.0600
  3.935   2.0909
  3.932   2.1321
  3.929   2.1218
  3.926   2.0909
  3.923   2.1424
  3.920   2.1630
  3.917   2.1321
  3.914   2.1527
  3.911   2.1630
  3.908   2.1424
  3.905   2.1218
  3.902   2.0806
  3.899   2.1012
  3.896   2.1218
  3.893   2.1115
  3.890   2.1321
  3.887   2.1733
  3.884   2.1733
  3.882   2.1527
  3.879   2.1321
  3.876   2.1218
  3.873   2.1424
  3.870   2.1630
  3.867   2.1321
  3.864   2.1218
  3.861   2.0703
  3.858   2.0806
  3.856   2.1115
  3.853   2.1424
  3.850   2.1527
  3.847   2.1527
  3.844   2.1527
  3.841   2.1836
  3.838   2.1424
  3.836   2.1321
  3.833   2.0806
  3.830   2.0703
  3.827   2.1321
  3.824   2.2042
  3.822   2.2042
  3.819   2.1630
  3.816   2.1630
  3.813   2.2042
  3.810   2.1424
  3.807   2.0806
  3.805   2.1012
  3.802   2.1424
  3.799   2.1321
  3.796   2.1218
  3.794   2.1424
  3.791   2.1630
  3.788   2.1115
  3.785   2.0909
  3.782   2.0909
  3.780   2.1527
  3.777   2.1527
  3.774   2.1115
  3.771   2.1115
  3.769   2.1527
  3.766   2.1012
  3.763   2.1115
  3.761   2.2042
  3.758   2.2145
  3.755   2.1218
  3.752   2.0703
  3.750   2.0394
  3.747   2.0806
  3.744   2.1321
  3.742   2.1321
  3.739   2.0909
  3.736   2.0909
  3.733   2.1321
  3.731   2.1527
  3.728   2.1115
  3.725   2.0703
  3.723   2.0806
  3.720   2.1424
  3.717   2.1424
  3.715   2.1218
  3.712   2.1321
  3.709   2.1218
  3.707   2.0909
  3.704   2.1012
  3.702   2.1527
  3.699   2.1836
  3.696   2.2042
  3.694   2.1939
  3.691   2.1218
  3.688   2.1218
  3.686   2.1527
  3.683   2.1630
  3.680   2.1630
  3.678   2.1630
  3.675   2.1321
  3.673   2.1527
  3.670   2.1630
  3.667   2.1424
  3.665   2.0703
  3.662   2.0806
  3.660   2.1218
  3.657   2.1321
  3.655   2.1115
  3.652   2.1424
  3.649   2.2145
  3.647   2.2454
  3.644   2.1939
  3.642   2.1527
  3.639   2.1012
  3.637   2.0806
  3.634   2.0806
  3.632   2.1012
  3.629   2.0909
  3.626   2.1012
  3.624   2.1321
  3.621   2.1218
  3.619   2.1115
  3.616   2.1424
  3.614   2.0703
  3.611   2.0394
  3.609   2.0806
  3.606   2.0909
  3.604   2.0806
  3.601   2.0703
  3.599   2.1115
  3.596   2.1115
  3.594   2.1012
  3.591   2.1218
  3.589   2.0909
  3.586   2.0806
  3.584   2.0703
