Name: Meyerhofferite Ca2B6O6(OH)10 * H2O
Type: Mineral
Class: Borate
Subclass: None
Particle Size: Unsieved coarse powder
Sample No.: NMNH 96075-3
Owner: Smithsonian Institute, National Museum of Nat. History
Wavelength range: 0.40 - 14.05 um
Origin: Inyo County, CA

Description: Meyerhofferite from Inyo County, CA





Measurement: Directional Hemispherical Reflectance
First Column: X
Second Column: Y
X Units: Wavelength (micrometers)
Y Units: Reflectance (percent)
First X Value: 14.05105
Last X Value: 0.40000
Number of X Values: 2756
Additional Information: None

 14.051   2.4617
 14.013   2.4514
 13.975   2.5956
 13.938   2.5647
 13.900   2.6780
 13.863   2.7501
 13.826   2.9252
 13.790   2.9870
 13.753   3.1415
 13.717   3.1312
 13.680   3.1415
 13.644   3.0179
 13.609   2.9149
 13.573   2.7501
 13.538   2.6265
 13.502   2.3999
 13.467   2.3278
 13.432   2.1733
 13.398   2.1836
 13.363   2.1836
 13.329   2.1733
 13.295   2.0085
 13.261   2.0394
 13.227   2.1012
 13.193   2.1630
 13.160   2.1630
 13.126   2.2351
 13.093   2.2660
 13.060   2.4102
 13.027   2.4617
 12.995   2.5750
 12.962   2.5441
 12.930   2.5647
 12.898   2.5750
 12.866   2.7089
 12.834   2.7295
 12.802   2.7604
 12.771   2.7192
 12.739   2.7810
 12.708   2.8016
 12.677   2.9046
 12.646   2.9149
 12.616   3.0076
 12.585   3.0385
 12.554   3.0900
 12.524   3.0179
 12.494   3.0179
 12.464   2.9252
 12.434   2.8016
 12.404   2.6883
 12.375   2.6471
 12.345   2.5235
 12.316   2.5132
 12.287   2.4617
 12.258   2.3793
 12.229   2.2763
 12.200   2.3175
 12.171   2.2557
 12.143   2.1836
 12.115   2.1321
 12.086   2.2042
 12.058   2.2351
 12.030   2.3175
 12.002   2.3278
 11.975   2.4205
 11.947   2.4720
 11.920   2.5647
 11.892   2.5647
 11.865   2.5853
 11.838   2.5750
 11.811   2.6162
 11.784   2.5029
 11.757   2.4720
 11.731   2.4514
 11.704   2.4514
 11.678   2.3690
 11.652   2.3896
 11.626   2.3381
 11.600   2.3381
 11.574   2.3896
 11.548   2.4926
 11.522   2.4411
 11.497   2.4514
 11.471   2.4720
 11.446   2.5750
 11.421   2.6162
 11.396   2.6883
 11.371   2.7192
 11.346   2.7913
 11.321   2.7604
 11.297   2.7810
 11.272   2.7398
 11.248   2.7810
 11.223   2.8016
 11.199   2.8016
 11.175   2.7604
 11.151   2.7913
 11.127   2.8119
 11.103   2.8531
 11.079   2.8531
 11.056   2.8840
 11.032   2.8737
 11.009   2.9149
 10.985   2.8634
 10.962   2.8531
 10.939   2.7604
 10.916   2.7192
 10.893   2.6471
 10.870   2.6265
 10.848   2.5544
 10.825   2.5956
 10.802   2.6162
 10.780   2.6677
 10.758   2.6574
 10.735   2.7707
 10.713   2.8840
 10.691   3.0179
 10.669   3.1312
 10.647   3.2445
 10.625   3.3166
 10.604   3.4196
 10.582   3.4402
 10.560   3.4299
 10.539   3.3784
 10.518   3.3166
 10.496   3.2136
 10.475   3.2136
 10.454   3.2754
 10.433   3.3990
 10.412   3.5020
 10.391   3.6462
 10.370   3.7698
 10.350   3.9758
 10.329   4.1406
 10.309   4.2127
 10.288   4.1612
 10.268   4.1303
 10.247   3.9964
 10.227   3.8419
 10.207   3.6565
 10.187   3.4711
 10.167   3.2033
 10.147   3.0076
 10.127   2.8737
 10.108   2.7707
 10.088   2.6265
 10.068   2.5132
 10.049   2.3587
 10.029   2.3999
 10.010   2.3999
  9.991   2.4205
  9.972   2.5132
  9.952   2.7089
  9.933   2.8428
  9.914   3.0179
  9.895   3.1415
  9.877   3.3372
  9.858   3.5329
  9.839   3.7183
  9.821   3.8316
  9.802   4.0582
  9.783   4.2230
  9.765   4.4187
  9.747   4.5320
  9.728   4.7071
  9.710   4.8616
  9.692   5.0367
  9.674   5.0985
  9.656   5.2221
  9.638   5.2736
  9.620   5.3663
  9.602   5.3251
  9.585   5.2530
  9.567   5.1294
  9.549   5.0367
  9.532   4.8410
  9.514   4.6144
  9.497   4.2951
  9.479   4.0685
  9.462   3.8110
  9.445   3.6256
  9.428   3.4299
  9.411   3.2960
  9.394   3.1724
  9.377   3.1415
  9.360   3.1312
  9.343   3.1415
  9.326   3.1312
  9.309   3.2136
  9.293   3.2857
  9.276   3.4093
  9.259   3.4814
  9.243   3.5947
  9.226   3.7183
  9.210   3.9037
  9.194   4.0479
  9.178   4.2024
  9.161   4.2642
  9.145   4.3981
  9.129   4.4702
  9.113   4.6144
  9.097   4.6350
  9.081   4.7071
  9.065   4.6762
  9.049   4.6762
  9.034   4.6144
  9.018   4.5423
  9.002   4.3981
  8.987   4.3260
  8.971   4.1921
  8.956   4.0479
  8.940   3.8110
  8.925   3.6874
  8.909   3.5432
  8.894   3.4505
  8.879   3.3784
  8.864   3.3990
  8.849   3.4196
  8.834   3.5123
  8.819   3.5329
  8.804   3.5947
  8.789   3.6874
  8.774   3.8110
  8.759   3.8625
  8.744   3.9140
  8.730   3.9346
  8.715   3.9861
  8.700   3.9861
  8.686   4.0067
  8.671   3.8934
  8.657   3.8419
  8.642   3.7904
  8.628   3.7698
  8.614   3.6668
  8.599   3.5638
  8.585   3.4402
  8.571   3.3372
  8.557   3.1930
  8.543   3.0900
  8.529   2.9046
  8.515   2.7810
  8.501   2.6368
  8.487   2.5132
  8.473   2.3690
  8.459   2.2969
  8.445   2.2763
  8.431   2.2557
  8.418   2.1836
  8.404   2.1939
  8.391   2.1836
  8.377   2.1527
  8.363   2.0394
  8.350   2.0188
  8.337   1.9982
  8.323   1.9776
  8.310   1.8952
  8.297   1.8231
  8.283   1.7510
  8.270   1.6583
  8.257   1.5450
  8.244   1.5450
  8.231   1.5038
  8.218   1.5141
  8.205   1.4626
  8.192   1.4111
  8.179   1.3596
  8.166   1.4008
  8.153   1.4008
  8.140   1.4111
  8.128   1.3390
  8.115   1.3390
  8.102   1.2875
  8.090   1.2360
  8.077   1.1845
  8.064   1.1742
  8.052   1.1536
  8.039   1.1536
  8.027   1.1227
  8.015   1.1536
  8.002   1.1433
  7.990   1.1330
  7.978   1.1124
  7.965   1.1330
  7.953   1.0815
  7.941   1.1227
  7.929   1.1330
  7.917   1.1433
  7.905   1.1536
  7.893   1.1845
  7.881   1.1742
  7.869   1.1845
  7.857   1.2051
  7.845   1.2463
  7.833   1.2360
  7.821   1.2875
  7.809   1.3184
  7.798   1.3287
  7.786   1.3081
  7.774   1.3596
  7.763   1.3596
  7.751   1.3596
  7.739   1.4008
  7.728   1.4420
  7.716   1.4523
  7.705   1.4935
  7.694   1.5038
  7.682   1.5141
  7.671   1.5244
  7.659   1.5759
  7.648   1.5965
  7.637   1.6686
  7.626   1.6583
  7.614   1.6171
  7.603   1.5965
  7.592   1.6789
  7.581   1.7510
  7.570   1.7819
  7.559   1.7613
  7.548   1.7716
  7.537   1.7819
  7.526   1.8231
  7.515   1.8231
  7.504   1.8746
  7.493   1.9364
  7.483   1.9570
  7.472   1.9570
  7.461   1.9570
  7.450   1.9776
  7.440   2.0703
  7.429   2.1321
  7.418   2.1939
  7.408   2.3072
  7.397   2.3999
  7.387   2.4308
  7.376   2.5132
  7.366   2.5956
  7.355   2.6677
  7.345   2.6883
  7.334   2.7398
  7.324   2.8119
  7.314   2.9355
  7.303   2.9973
  7.293   3.0076
  7.283   2.8737
  7.273   2.7604
  7.263   2.6883
  7.252   2.6265
  7.242   2.4926
  7.232   2.3793
  7.222   2.2145
  7.212   2.1424
  7.202   2.0703
  7.192   2.0909
  7.182   2.1321
  7.172   2.1836
  7.162   2.2145
  7.152   2.3278
  7.143   2.4411
  7.133   2.6059
  7.123   2.7295
  7.113   2.8325
  7.103   2.9664
  7.094   3.1209
  7.084   3.2239
  7.074   3.3063
  7.065   3.2651
  7.055   3.2033
  7.046   3.0385
  7.036   2.8943
  7.026   2.7192
  7.017   2.4308
  7.007   2.0600
  6.998   1.7510
  6.989   1.4626
  6.979   1.2875
  6.970   1.1433
  6.960   1.0506
  6.951   1.0609
  6.942   1.2463
  6.932   1.4214
  6.923   1.6068
  6.914   1.7613
  6.905   1.9570
  6.896   2.1012
  6.886   2.1733
  6.877   2.1939
  6.868   2.1424
  6.859   1.9982
  6.850   1.9467
  6.841   1.9158
  6.832   1.7613
  6.823   1.5038
  6.814   1.3699
  6.805   1.3081
  6.796   1.1639
  6.787   0.9785
  6.778   0.9579
  6.770   0.9579
  6.761   0.9579
  6.752   0.9373
  6.743   0.8858
  6.734   0.8652
  6.726   0.8858
  6.717   0.8549
  6.708   0.8034
  6.700   0.7931
  6.691   0.8549
  6.682   0.8343
  6.674   0.8652
  6.665   0.9064
  6.657   0.9579
  6.648   0.9373
  6.640   0.9064
  6.631   0.8343
  6.623   0.8755
  6.614   0.9064
  6.606   0.9579
  6.597   0.9682
  6.589   0.9167
  6.581   0.9064
  6.572   0.9373
  6.564   0.9579
  6.556   0.9888
  6.547   1.0094
  6.539   1.0506
  6.531   1.0403
  6.523   1.0506
  6.514   1.0403
  6.506   1.0609
  6.498   1.0506
  6.490   0.9991
  6.482   0.9991
  6.474   1.0506
  6.466   1.0609
  6.458   1.1021
  6.450   1.1021
  6.442   1.1433
  6.434   1.1330
  6.426   1.0712
  6.418   1.0300
  6.410   1.0094
  6.402   1.0506
  6.394   1.1021
  6.386   1.1124
  6.378   1.1639
  6.370   1.1124
  6.363   1.0506
  6.355   1.1021
  6.347   1.1227
  6.339   1.0712
  6.332   1.1330
  6.324   1.1742
  6.316   1.1948
  6.308   1.1948
  6.301   1.2154
  6.293   1.1845
  6.286   1.2051
  6.278   1.2360
  6.270   1.2463
  6.263   1.2257
  6.255   1.2463
  6.248   1.2772
  6.240   1.3287
  6.233   1.3184
  6.225   1.3184
  6.218   1.3184
  6.210   1.3493
  6.203   1.3596
  6.195   1.3493
  6.188   1.3081
  6.181   1.2772
  6.173   1.3081
  6.166   1.2978
  6.159   1.2669
  6.151   1.3081
  6.144   1.3596
  6.137   1.3699
  6.130   1.4008
  6.122   1.4111
  6.115   1.3493
  6.108   1.3287
  6.101   1.4317
  6.094   1.5141
  6.086   1.5038
  6.079   1.4729
  6.072   1.4111
  6.065   1.4008
  6.058   1.4626
  6.051   1.4317
  6.044   1.3390
  6.037   1.5038
  6.030   1.6480
  6.023   1.6686
  6.016   1.6480
  6.009   1.6480
  6.002   1.6892
  5.995   1.6892
  5.988   1.6583
  5.981   1.6480
  5.974   1.6789
  5.967   1.6583
  5.960   1.6583
  5.954   1.7304
  5.947   1.7510
  5.940   1.7201
  5.933   1.6480
  5.926   1.7201
  5.920   1.8025
  5.913   1.8643
  5.906   1.8952
  5.899   1.8643
  5.893   1.7922
  5.886   1.8128
  5.879   1.7716
  5.873   1.7922
  5.866   1.8849
  5.859   1.9364
  5.853   2.0188
  5.846   2.0703
  5.840   2.0909
  5.833   2.1012
  5.827   2.0703
  5.820   2.0497
  5.813   2.0806
  5.807   2.2454
  5.800   2.3072
  5.794   2.3381
  5.788   2.3587
  5.781   2.3484
  5.775   2.3072
  5.768   2.2660
  5.762   2.1939
  5.755   2.3381
  5.749   2.4102
  5.743   2.3793
  5.736   2.4102
  5.730   2.4514
  5.724   2.5132
  5.717   2.5338
  5.711   2.4720
  5.705   2.4720
  5.698   2.5647
  5.692   2.6059
  5.686   2.6368
  5.680   2.7295
  5.674   2.7089
  5.667   2.7192
  5.661   2.7913
  5.655   2.7913
  5.649   2.7810
  5.643   2.7604
  5.637   2.7192
  5.630   2.8634
  5.624   2.9561
  5.618   2.9870
  5.612   2.9870
  5.606   2.9870
  5.600   2.9664
  5.594   2.9870
  5.588   3.0076
  5.582   2.9767
  5.576   2.9252
  5.570   2.9767
  5.564   3.0282
  5.558   3.0591
  5.552   3.0282
  5.546   3.0282
  5.540   3.1003
  5.534   3.1930
  5.528   3.2445
  5.523   3.2651
  5.517   3.3166
  5.511   3.3372
  5.505   3.3578
  5.499   3.3784
  5.493   3.3990
  5.487   3.4402
  5.482   3.4505
  5.476   3.4299
  5.470   3.4917
  5.464   3.5020
  5.459   3.4608
  5.453   3.5741
  5.447   3.6462
  5.441   3.6565
  5.436   3.6771
  5.430   3.7183
  5.424   3.6668
  5.419   3.5844
  5.413   3.6668
  5.407   3.7801
  5.402   3.8110
  5.396   3.8522
  5.390   3.8831
  5.385   3.9140
  5.379   3.9140
  5.374   3.9655
  5.368   4.0170
  5.363   4.0067
  5.357   3.9861
  5.352   3.9449
  5.346   3.9140
  5.341   3.9758
  5.335   4.0273
  5.330   4.0273
  5.324   4.0582
  5.319   4.0891
  5.313   4.0788
  5.308   4.1200
  5.302   4.1715
  5.297   4.1509
  5.291   4.1303
  5.286   4.1509
  5.281   4.1818
  5.275   4.1715
  5.270   4.1921
  5.265   4.2539
  5.259   4.2745
  5.254   4.2539
  5.249   4.2230
  5.243   4.2333
  5.238   4.2436
  5.233   4.2539
  5.227   4.2642
  5.222   4.2745
  5.217   4.2745
  5.212   4.2539
  5.206   4.2745
  5.201   4.3260
  5.196   4.3363
  5.191   4.3569
  5.186   4.3569
  5.180   4.3569
  5.175   4.3672
  5.170   4.3981
  5.165   4.4187
  5.160   4.4290
  5.155   4.4084
  5.150   4.4290
  5.145   4.3878
  5.139   4.3775
  5.134   4.3775
  5.129   4.3672
  5.124   4.3672
  5.119   4.3878
  5.114   4.3878
  5.109   4.3775
  5.104   4.3569
  5.099   4.3672
  5.094   4.3981
  5.089   4.4084
  5.084   4.3878
  5.079   4.3672
  5.074   4.3569
  5.069   4.3775
  5.064   4.3775
  5.059   4.3569
  5.054   4.3569
  5.049   4.3775
  5.044   4.3981
  5.040   4.3878
  5.035   4.3775
  5.030   4.3775
  5.025   4.3363
  5.020   4.3260
  5.015   4.3672
  5.010   4.3878
  5.005   4.3775
  5.001   4.3775
  4.996   4.3775
  4.991   4.3878
  4.986   4.4187
  4.981   4.4393
  4.977   4.4084
  4.972   4.3981
  4.967   4.3981
  4.962   4.3878
  4.958   4.3878
  4.953   4.3981
  4.948   4.4084
  4.943   4.3981
  4.939   4.3878
  4.934   4.3981
  4.929   4.4187
  4.925   4.4187
  4.920   4.4290
  4.915   4.4290
  4.911   4.4290
  4.906   4.4496
  4.901   4.4496
  4.897   4.4187
  4.892   4.4084
  4.888   4.4290
  4.883   4.4084
  4.878   4.4187
  4.874   4.4290
  4.869   4.4187
  4.865   4.3981
  4.860   4.3878
  4.856   4.3775
  4.851   4.3878
  4.846   4.4187
  4.842   4.4084
  4.837   4.3878
  4.833   4.4084
  4.828   4.4187
  4.824   4.4290
  4.819   4.4496
  4.815   4.4599
  4.810   4.4702
  4.806   4.4393
  4.802   4.3981
  4.797   4.4187
  4.793   4.4599
  4.788   4.4599
  4.784   4.4290
  4.779   4.4393
  4.775   4.4393
  4.771   4.4702
  4.766   4.4805
  4.762   4.4702
  4.758   4.4805
  4.753   4.4908
  4.749   4.5217
  4.744   4.5320
  4.740   4.4702
  4.736   4.4599
  4.731   4.4393
  4.727   4.4290
  4.723   4.4496
  4.719   4.4599
  4.714   4.4290
  4.710   4.4084
  4.706   4.3878
  4.701   4.3981
  4.697   4.4084
  4.693   4.4084
  4.689   4.3672
  4.684   4.3672
  4.680   4.3775
  4.676   4.3363
  4.672   4.3054
  4.668   4.3157
  4.663   4.2951
  4.659   4.2951
  4.655   4.3157
  4.651   4.2951
  4.647   4.2230
  4.643   4.1715
  4.638   4.1509
  4.634   4.1509
  4.630   4.1509
  4.626   4.1303
  4.622   4.1200
  4.618   4.1097
  4.614   4.0994
  4.610   4.1200
  4.605   4.1097
  4.601   4.0582
  4.597   4.0067
  4.593   4.0067
  4.589   4.0479
  4.585   4.0170
  4.581   4.0067
  4.577   3.9964
  4.573   3.9861
  4.569   4.0067
  4.565   4.0376
  4.561   4.0788
  4.557   4.0685
  4.553   4.0685
  4.549   4.0788
  4.545   4.0994
  4.541   4.0788
  4.537   4.0685
  4.533   4.1303
  4.529   4.1509
  4.525   4.0994
  4.521   4.0788
  4.517   4.0994
  4.513   4.1406
  4.509   4.1406
  4.505   4.1303
  4.502   4.1612
  4.498   4.1509
  4.494   4.1200
  4.490   4.1406
  4.486   4.2127
  4.482   4.2024
  4.478   4.1818
  4.474   4.1818
  4.470   4.2436
  4.467   4.3054
  4.463   4.2745
  4.459   4.2333
  4.455   4.2539
  4.451   4.2951
  4.447   4.3260
  4.444   4.3466
  4.440   4.3775
  4.436   4.3775
  4.432   4.3775
  4.428   4.4084
  4.425   4.4702
  4.421   4.4805
  4.417   4.4908
  4.413   4.4805
  4.410   4.4908
  4.406   4.5423
  4.402   4.5835
  4.398   4.5835
  4.395   4.5938
  4.391   4.6144
  4.387   4.6453
  4.384   4.6247
  4.380   4.6350
  4.376   4.6762
  4.372   4.7277
  4.369   4.7689
  4.365   4.7998
  4.361   4.7895
  4.358   4.7792
  4.354   4.7998
  4.350   4.8513
  4.347   4.8204
  4.343   4.8307
  4.340   4.8719
  4.336   4.8925
  4.332   4.9028
  4.329   4.9440
  4.325   4.9749
  4.321   5.0058
  4.318   5.0058
  4.314   5.0161
  4.311   5.0367
  4.307   5.1088
  4.304   5.1809
  4.300   5.2427
  4.296   5.2324
  4.293   5.2221
  4.289   5.2736
  4.286   5.3354
  4.282   5.3457
  4.279   5.3354
  4.275   5.3045
  4.272   5.3045
  4.268   5.3251
  4.265   5.3972
  4.261   5.3354
  4.258   5.2530
  4.254   5.2633
  4.251   5.2736
  4.247   5.3251
  4.244   5.3560
  4.240   5.3869
  4.237   5.4178
  4.233   5.4281
  4.230   5.4178
  4.226   5.3663
  4.223   5.3457
  4.219   5.3869
  4.216   5.3354
  4.213   5.2118
  4.209   5.1603
  4.206   5.0985
  4.202   5.0573
  4.199   5.0367
  4.196   5.0367
  4.192   5.0573
  4.189   5.0470
  4.185   4.9955
  4.182   4.9749
  4.179   4.9749
  4.175   5.0161
  4.172   5.0161
  4.169   4.9852
  4.165   4.9646
  4.162   5.0367
  4.159   5.0676
  4.155   5.0264
  4.152   5.0058
  4.149   5.0367
  4.145   5.0573
  4.142   5.0676
  4.139   5.0985
  4.135   5.1191
  4.132   5.1294
  4.129   5.1912
  4.126   5.2015
  4.122   5.2118
  4.119   5.2530
  4.116   5.2736
  4.112   5.2633
  4.109   5.3045
  4.106   5.3869
  4.103   5.3972
  4.099   5.4384
  4.096   5.4590
  4.093   5.5208
  4.090   5.6135
  4.086   5.6650
  4.083   5.6753
  4.080   5.6341
  4.077   5.6959
  4.074   5.7680
  4.070   5.7886
  4.067   5.8298
  4.064   5.9225
  4.061   5.9534
  4.058   5.9740
  4.055   6.0255
  4.051   6.0770
  4.048   6.0770
  4.045   6.0667
  4.042   6.1182
  4.039   6.2212
  4.036   6.2418
  4.032   6.2418
  4.029   6.2212
  4.026   6.2418
  4.023   6.2727
  4.020   6.2933
  4.017   6.2727
  4.014   6.2418
  4.011   6.2212
  4.008   6.2727
  4.004   6.2624
  4.001   6.2933
  3.998   6.2830
  3.995   6.2418
  3.992   6.2315
  3.989   6.2624
  3.986   6.2624
  3.983   6.2521
  3.980   6.2315
  3.977   6.2315
  3.974   6.2624
  3.971   6.3036
  3.968   6.3654
  3.965   6.4066
  3.962   6.4478
  3.959   6.4272
  3.956   6.4272
  3.953   6.5096
  3.950   6.5405
  3.947   6.5920
  3.944   6.6538
  3.941   6.7156
  3.938   6.7053
  3.935   6.6950
  3.932   6.7671
  3.929   6.8392
  3.926   6.8701
  3.923   6.8907
  3.920   6.8804
  3.917   6.9216
  3.914   6.9834
  3.911   7.0040
  3.908   6.9731
  3.905   7.0143
  3.902   7.0040
  3.899   7.0040
  3.896   7.0040
  3.893   7.0040
  3.890   7.0349
  3.887   7.0246
  3.884   7.0246
  3.882   7.0452
  3.879   7.0349
  3.876   7.0452
  3.873   7.0967
  3.870   7.0967
  3.867   7.0658
  3.864   7.0555
  3.861   7.0349
  3.858   7.0452
  3.856   7.0555
  3.853   7.1070
  3.850   7.0967
  3.847   7.1173
  3.844   7.1276
  3.841   7.1070
  3.838   7.0967
  3.836   7.1379
  3.833   7.1688
  3.830   7.1791
  3.827   7.1482
  3.824   7.1482
  3.822   7.1688
  3.819   7.1585
  3.816   7.1791
  3.813   7.1791
  3.810   7.1482
  3.807   7.1585
  3.805   7.1688
  3.802   7.1585
  3.799   7.1482
  3.796   7.1997
  3.794   7.1997
  3.791   7.1688
  3.788   7.1997
  3.785   7.2306
  3.782   7.1791
  3.780   7.1688
  3.777   7.1585
  3.774   7.1173
  3.771   7.1070
  3.769   7.0967
  3.766   7.0555
  3.763   7.0761
  3.761   7.0761
  3.758   7.0555
  3.755   7.0143
  3.752   7.0349
  3.750   7.0040
  3.747   6.9525
  3.744   6.9319
  3.742   6.9422
  3.739   6.9216
  3.736   6.9010
  3.733   6.8701
  3.731   6.7980
  3.728   6.7053
  3.725   6.6847
  3.723   6.6950
  3.720   6.7053
  3.717   6.6744
  3.715   6.6435
  3.712   6.5508
  3.709   6.5302
  3.707   6.4993
  3.704   6.4375
  3.702   6.3860
  3.699   6.3551
  3.696   6.2830
  3.694   6.2933
  3.691   6.2624
  3.688   6.2006
  3.686   6.1079
  3.683   6.0667
  3.680   6.0358
  3.678   5.9637
  3.675   5.8916
  3.673   5.8504
  3.670   5.7989
  3.667   5.7371
  3.665   5.6959
  3.662   5.7062
  3.660   5.6547
  3.657   5.5620
  3.655   5.5002
  3.652   5.4384
  3.649   5.3663
  3.647   5.3148
  3.644   5.2530
  3.642   5.2118
  3.639   5.2015
  3.637   5.1603
  3.634   5.1088
  3.632   5.1191
  3.629   5.0573
  3.626   5.0058
  3.624   4.9543
  3.621   4.9543
  3.619   4.9337
  3.616   4.8925
  3.614   4.7998
  3.611   4.7792
  3.609   4.7174
  3.606   4.6762
  3.604   4.6144
  3.601   4.5835
  3.599   4.5835
  3.596   4.5423
  3.594   4.5114
  3.591   4.4702
  3.589   4.4084
