Name: Ulexite NaCaB5O6(OH)6 * 5H2O
Type: Mineral
Class: Borate
Subclass: None
Particle Size: Unsieved coarse powder
Sample No.: None
Owner: USGS
Wavelength range: 0.40 - 14.05 um
Origin: Boron, California

Description: Ulexite powder from Boron, California





Measurement: Directional Hemispherical Reflectance
First Column: X
Second Column: Y
X Units: Wavelength (micrometers)
Y Units: Reflectance (percent)
First X Value: 14.05105
Last X Value: 0.40000
Number of X Values: 2756
Additional Information: None

 14.051   2.4102
 14.013   2.3999
 13.975   2.5544
 13.938   2.3175
 13.900   2.3484
 13.863   2.1527
 13.826   2.0497
 13.790   1.9364
 13.753   2.0600
 13.717   2.0497
 13.680   2.0188
 13.644   1.8849
 13.609   2.0188
 13.573   2.0394
 13.538   2.1321
 13.502   2.1527
 13.467   2.2969
 13.432   2.2557
 13.398   2.3278
 13.363   2.2969
 13.329   2.3175
 13.295   2.1424
 13.261   2.0085
 13.227   1.7819
 13.193   1.7922
 13.160   1.6892
 13.126   1.7407
 13.093   1.8231
 13.060   1.8540
 13.027   1.7819
 12.995   1.9261
 12.962   1.9467
 12.930   2.0188
 12.898   2.0394
 12.866   2.1424
 12.834   2.1836
 12.802   2.3072
 12.771   2.3072
 12.739   2.3999
 12.708   2.3999
 12.677   2.5544
 12.646   2.6059
 12.616   2.6368
 12.585   2.6059
 12.554   2.7295
 12.524   2.7192
 12.494   2.8222
 12.464   2.8531
 12.434   2.9355
 12.404   2.9355
 12.375   3.0591
 12.345   3.0591
 12.316   3.1415
 12.287   3.1827
 12.258   3.2548
 12.229   3.2239
 12.200   3.2754
 12.171   3.2857
 12.143   3.3784
 12.115   3.3990
 12.086   3.4917
 12.058   3.4402
 12.030   3.4299
 12.002   3.3372
 11.975   3.2754
 11.947   3.1312
 11.920   3.1724
 11.892   3.1415
 11.865   3.2136
 11.838   3.2445
 11.811   3.3578
 11.784   3.4196
 11.757   3.5638
 11.731   3.7389
 11.704   4.0273
 11.678   4.1303
 11.652   4.2951
 11.626   4.3878
 11.600   4.5423
 11.574   4.5114
 11.548   4.5320
 11.522   4.3672
 11.497   4.1818
 11.471   3.8419
 11.446   3.6462
 11.421   3.4505
 11.396   3.2754
 11.371   2.9767
 11.346   2.8428
 11.321   2.6265
 11.297   2.4308
 11.272   2.1836
 11.248   1.9982
 11.223   1.8128
 11.199   1.7716
 11.175   1.6583
 11.151   1.6480
 11.127   1.6377
 11.103   1.7098
 11.079   1.6789
 11.056   1.8025
 11.032   1.8643
 11.009   1.8952
 10.985   1.8746
 10.962   1.9673
 10.939   2.0291
 10.916   2.1321
 10.893   2.1115
 10.870   2.2351
 10.848   2.2557
 10.825   2.3175
 10.802   2.2660
 10.780   2.3072
 10.758   2.2248
 10.735   2.2351
 10.713   2.2557
 10.691   2.3587
 10.669   2.3175
 10.647   2.3381
 10.625   2.4102
 10.604   2.5338
 10.582   2.5235
 10.560   2.5956
 10.539   2.6059
 10.518   2.6471
 10.496   2.6780
 10.475   2.7501
 10.454   2.7089
 10.433   2.7295
 10.412   2.6883
 10.391   2.7295
 10.370   2.7604
 10.350   2.8737
 10.329   2.9355
 10.309   3.1003
 10.288   3.1930
 10.268   3.2960
 10.247   3.2754
 10.227   3.3063
 10.207   3.2342
 10.187   3.2960
 10.167   3.3166
 10.147   3.3166
 10.127   3.2754
 10.108   3.3166
 10.088   3.3784
 10.068   3.5123
 10.049   3.6256
 10.029   3.7389
 10.010   3.7389
  9.991   3.9037
  9.972   4.0376
  9.952   4.2024
  9.933   4.2436
  9.914   4.2333
  9.895   4.1406
  9.877   4.0376
  9.858   3.7286
  9.839   3.5226
  9.821   3.2960
  9.802   3.1003
  9.783   2.7913
  9.765   2.5956
  9.747   2.3896
  9.728   2.3175
  9.710   2.1939
  9.692   2.1836
  9.674   2.1939
  9.656   2.2660
  9.638   2.2660
  9.620   2.3587
  9.602   2.4514
  9.585   2.5750
  9.567   2.6265
  9.549   2.7604
  9.532   2.8531
  9.514   2.9664
  9.497   2.9870
  9.479   3.1106
  9.462   3.1930
  9.445   3.3269
  9.428   3.3372
  9.411   3.3681
  9.394   3.3063
  9.377   3.3063
  9.360   3.2857
  9.343   3.2960
  9.326   3.2033
  9.309   3.2445
  9.293   3.3166
  9.276   3.3784
  9.259   3.2342
  9.243   3.1621
  9.226   3.0488
  9.210   2.9664
  9.194   2.9149
  9.178   2.9561
  9.161   2.9252
  9.145   2.8531
  9.129   2.7810
  9.113   2.8428
  9.097   2.8737
  9.081   2.9458
  9.065   2.9767
  9.049   3.0591
  9.034   2.9973
  9.018   2.9767
  9.002   2.9252
  8.987   2.9252
  8.971   2.9149
  8.956   2.8943
  8.940   2.7810
  8.925   2.7295
  8.909   2.5956
  8.894   2.4926
  8.879   2.3587
  8.864   2.2866
  8.849   2.1115
  8.834   2.0291
  8.819   1.8952
  8.804   1.8334
  8.789   1.6995
  8.774   1.6274
  8.759   1.5450
  8.744   1.5656
  8.730   1.5141
  8.715   1.4935
  8.700   1.3699
  8.686   1.3699
  8.671   1.3184
  8.657   1.2669
  8.642   1.2154
  8.628   1.2566
  8.614   1.2360
  8.599   1.2257
  8.585   1.1536
  8.571   1.1639
  8.557   1.1021
  8.543   1.1845
  8.529   1.2051
  8.515   1.2566
  8.501   1.3184
  8.487   1.3493
  8.473   1.2566
  8.459   1.3184
  8.445   1.4111
  8.431   1.5553
  8.418   1.5965
  8.404   1.6274
  8.391   1.6068
  8.377   1.6274
  8.363   1.6171
  8.350   1.6171
  8.337   1.5862
  8.323   1.6480
  8.310   1.6274
  8.297   1.6068
  8.283   1.5965
  8.270   1.7510
  8.257   1.8540
  8.244   1.8746
  8.231   1.8231
  8.218   1.8849
  8.205   1.9261
  8.192   1.9467
  8.179   1.8437
  8.166   1.6995
  8.153   1.5244
  8.140   1.4214
  8.128   1.3081
  8.115   1.2875
  8.102   1.1742
  8.090   1.0815
  8.077   1.0197
  8.064   0.9682
  8.052   0.8755
  8.039   0.8858
  8.027   0.8446
  8.015   0.8961
  8.002   0.9167
  7.990   0.9270
  7.978   0.9373
  7.965   1.0094
  7.953   0.9682
  7.941   0.9888
  7.929   1.0197
  7.917   1.0712
  7.905   1.0918
  7.893   1.1124
  7.881   1.1227
  7.869   1.2154
  7.857   1.2669
  7.845   1.3287
  7.833   1.3287
  7.821   1.3699
  7.809   1.3699
  7.798   1.4111
  7.786   1.4214
  7.774   1.4729
  7.763   1.4729
  7.751   1.5038
  7.739   1.5244
  7.728   1.5759
  7.716   1.6274
  7.705   1.6686
  7.694   1.6377
  7.682   1.7098
  7.671   1.7613
  7.659   1.8128
  7.648   1.8643
  7.637   1.9673
  7.626   2.0600
  7.614   2.2145
  7.603   2.2866
  7.592   2.3484
  7.581   2.3999
  7.570   2.4823
  7.559   2.5029
  7.548   2.5029
  7.537   2.4411
  7.526   2.4102
  7.515   2.3278
  7.504   2.2866
  7.493   2.2454
  7.483   2.2042
  7.472   2.1218
  7.461   2.0291
  7.450   1.8849
  7.440   1.8334
  7.429   1.7922
  7.418   1.8231
  7.408   1.7819
  7.397   1.7819
  7.387   1.7922
  7.376   1.8128
  7.366   1.8025
  7.355   1.8231
  7.345   1.8437
  7.334   1.8334
  7.324   1.7201
  7.314   1.6068
  7.303   1.4935
  7.293   1.4420
  7.283   1.3596
  7.273   1.3184
  7.263   1.2360
  7.252   1.2463
  7.242   1.2360
  7.232   1.2978
  7.222   1.3596
  7.212   1.4420
  7.202   1.4523
  7.192   1.5347
  7.182   1.5862
  7.172   1.6171
  7.162   1.5759
  7.152   1.6171
  7.143   1.6480
  7.133   1.6789
  7.123   1.6274
  7.113   1.6480
  7.103   1.6583
  7.094   1.7098
  7.084   1.7407
  7.074   1.8334
  7.065   1.8849
  7.055   1.9364
  7.046   2.0291
  7.036   2.1115
  7.026   2.1218
  7.017   2.1939
  7.007   2.2145
  6.998   2.2557
  6.989   2.2557
  6.979   2.2866
  6.970   2.2351
  6.960   2.1836
  6.951   2.0909
  6.942   1.9467
  6.932   1.7716
  6.923   1.6583
  6.914   1.4729
  6.905   1.2875
  6.896   1.1330
  6.886   1.0506
  6.877   0.9476
  6.868   0.9064
  6.859   0.8549
  6.850   0.8549
  6.841   0.8034
  6.832   0.7622
  6.823   0.7519
  6.814   0.7416
  6.805   0.6798
  6.796   0.7313
  6.787   0.7622
  6.778   0.7931
  6.770   0.7210
  6.761   0.7004
  6.752   0.7004
  6.743   0.7416
  6.734   0.7416
  6.726   0.7519
  6.717   0.7210
  6.708   0.7313
  6.700   0.7107
  6.691   0.7107
  6.682   0.6798
  6.674   0.7313
  6.665   0.7210
  6.657   0.7313
  6.648   0.7519
  6.640   0.8034
  6.631   0.8034
  6.623   0.8034
  6.614   0.8240
  6.606   0.8755
  6.597   0.8961
  6.589   0.9373
  6.581   0.9270
  6.572   0.9785
  6.564   1.0403
  6.556   1.0403
  6.547   1.0094
  6.539   1.0300
  6.531   0.9785
  6.523   1.0197
  6.514   1.0815
  6.506   1.1124
  6.498   1.1227
  6.490   1.1742
  6.482   1.1536
  6.474   1.1639
  6.466   1.1330
  6.458   1.1536
  6.450   1.1845
  6.442   1.1948
  6.434   1.1948
  6.426   1.2463
  6.418   1.2566
  6.410   1.2360
  6.402   1.2154
  6.394   1.2463
  6.386   1.2669
  6.378   1.2772
  6.370   1.2566
  6.363   1.2772
  6.355   1.2669
  6.347   1.2669
  6.339   1.2566
  6.332   1.2772
  6.324   1.2875
  6.316   1.2978
  6.308   1.2669
  6.301   1.2463
  6.293   1.2669
  6.286   1.3081
  6.278   1.2875
  6.270   1.2772
  6.263   1.2669
  6.255   1.2669
  6.248   1.2566
  6.240   1.2257
  6.233   1.2051
  6.225   1.2257
  6.218   1.1948
  6.210   1.2257
  6.203   1.2360
  6.195   1.2051
  6.188   1.1845
  6.181   1.2257
  6.173   1.2051
  6.166   1.1639
  6.159   1.1330
  6.151   1.1124
  6.144   1.0609
  6.137   1.0712
  6.130   1.0815
  6.122   1.0918
  6.115   1.0815
  6.108   1.0918
  6.101   1.1124
  6.094   1.1021
  6.086   1.0506
  6.079   1.0815
  6.072   1.1124
  6.065   1.1742
  6.058   1.1742
  6.051   1.1536
  6.044   1.1948
  6.037   1.2051
  6.030   1.1845
  6.023   1.1742
  6.016   1.1536
  6.009   1.1639
  6.002   1.1227
  5.995   1.0712
  5.988   1.0403
  5.981   1.0712
  5.974   1.0918
  5.967   1.1021
  5.960   1.0712
  5.954   1.1021
  5.947   1.1330
  5.940   1.1742
  5.933   1.1948
  5.926   1.2463
  5.920   1.2669
  5.913   1.3390
  5.906   1.3390
  5.899   1.3905
  5.893   1.4626
  5.886   1.4832
  5.879   1.4523
  5.873   1.4523
  5.866   1.4317
  5.859   1.4832
  5.853   1.5553
  5.846   1.5656
  5.840   1.5656
  5.833   1.5862
  5.827   1.6377
  5.820   1.6789
  5.813   1.7304
  5.807   1.7407
  5.800   1.7407
  5.794   1.8334
  5.788   1.8643
  5.781   1.8952
  5.775   1.9055
  5.768   1.9776
  5.762   2.0394
  5.755   2.0703
  5.749   2.1012
  5.743   2.1218
  5.736   2.1321
  5.730   2.1733
  5.724   2.1733
  5.717   2.2042
  5.711   2.2248
  5.705   2.2969
  5.698   2.3381
  5.692   2.3690
  5.686   2.3896
  5.680   2.4102
  5.674   2.4205
  5.667   2.4308
  5.661   2.4411
  5.655   2.4823
  5.649   2.4926
  5.643   2.5132
  5.637   2.5338
  5.630   2.5441
  5.624   2.5647
  5.618   2.5956
  5.612   2.5956
  5.606   2.5956
  5.600   2.6368
  5.594   2.6574
  5.588   2.6677
  5.582   2.6883
  5.576   2.6986
  5.570   2.6986
  5.564   2.7089
  5.558   2.7089
  5.552   2.6883
  5.546   2.6986
  5.540   2.6677
  5.534   2.6883
  5.528   2.7192
  5.523   2.7398
  5.517   2.7398
  5.511   2.7192
  5.505   2.7192
  5.499   2.7192
  5.493   2.7501
  5.487   2.7604
  5.482   2.7398
  5.476   2.7398
  5.470   2.7192
  5.464   2.7192
  5.459   2.7192
  5.453   2.7398
  5.447   2.7707
  5.441   2.7810
  5.436   2.7707
  5.430   2.7501
  5.424   2.7398
  5.419   2.7707
  5.413   2.8119
  5.407   2.7913
  5.402   2.7707
  5.396   2.8325
  5.390   2.8119
  5.385   2.8016
  5.379   2.7913
  5.374   2.8119
  5.368   2.8531
  5.363   2.8634
  5.357   2.8325
  5.352   2.8222
  5.346   2.8222
  5.341   2.8428
  5.335   2.8325
  5.330   2.8325
  5.324   2.8737
  5.319   2.8531
  5.313   2.8119
  5.308   2.7913
  5.302   2.7707
  5.297   2.8119
  5.291   2.8428
  5.286   2.8428
  5.281   2.8222
  5.275   2.7913
  5.270   2.7707
  5.265   2.7707
  5.259   2.8016
  5.254   2.8222
  5.249   2.8428
  5.243   2.8531
  5.238   2.8428
  5.233   2.8325
  5.227   2.8428
  5.222   2.8840
  5.217   2.9046
  5.212   2.9149
  5.206   2.9252
  5.201   2.9355
  5.196   2.9767
  5.191   3.0076
  5.186   3.0076
  5.180   2.9973
  5.175   3.0282
  5.170   3.0488
  5.165   3.0385
  5.160   3.0385
  5.155   3.0385
  5.150   3.1003
  5.145   3.0694
  5.139   3.0385
  5.134   3.0282
  5.129   3.0488
  5.124   3.0591
  5.119   3.0900
  5.114   3.0797
  5.109   3.0694
  5.104   3.0694
  5.099   3.0900
  5.094   3.0900
  5.089   3.0694
  5.084   3.0385
  5.079   3.0282
  5.074   3.0385
  5.069   3.0591
  5.064   3.0694
  5.059   3.1003
  5.054   3.0797
  5.049   3.0385
  5.044   3.0385
  5.040   3.0385
  5.035   3.0385
  5.030   3.0488
  5.025   3.0385
  5.020   3.0282
  5.015   3.0282
  5.010   3.0282
  5.005   3.0282
  5.001   3.0179
  4.996   3.0282
  4.991   3.0591
  4.986   3.0488
  4.981   3.0488
  4.977   3.0282
  4.972   3.0488
  4.967   3.0488
  4.962   3.0591
  4.958   3.0488
  4.953   3.0282
  4.948   3.0282
  4.943   3.0488
  4.939   3.0900
  4.934   3.0797
  4.929   3.0385
  4.925   3.0179
  4.920   3.0076
  4.915   3.0179
  4.911   3.0694
  4.906   3.0900
  4.901   3.0694
  4.897   3.0694
  4.892   3.0797
  4.888   3.0797
  4.883   3.0797
  4.878   3.0694
  4.874   3.0591
  4.869   3.0797
  4.865   3.1003
  4.860   3.0900
  4.856   3.0488
  4.851   3.0385
  4.846   3.0694
  4.842   3.0694
  4.837   3.0591
  4.833   3.0488
  4.828   3.0591
  4.824   3.0282
  4.819   2.9767
  4.815   2.9973
  4.810   3.0488
  4.806   3.0179
  4.802   2.9458
  4.797   2.9458
  4.793   2.9664
  4.788   2.9561
  4.784   2.9355
  4.779   2.9252
  4.775   2.9355
  4.771   2.9458
  4.766   2.9149
  4.762   2.9149
  4.758   2.9149
  4.753   2.8943
  4.749   2.8325
  4.744   2.8016
  4.740   2.8325
  4.736   2.8634
  4.731   2.8119
  4.727   2.7707
  4.723   2.7604
  4.719   2.7707
  4.714   2.7604
  4.710   2.7913
  4.706   2.8531
  4.701   2.8428
  4.697   2.8119
  4.693   2.7913
  4.689   2.7913
  4.684   2.7810
  4.680   2.7810
  4.676   2.8222
  4.672   2.8737
  4.668   2.8428
  4.663   2.8119
  4.659   2.8119
  4.655   2.8016
  4.651   2.8119
  4.647   2.8325
  4.643   2.7913
  4.638   2.8016
  4.634   2.8016
  4.630   2.7810
  4.626   2.7810
  4.622   2.7604
  4.618   2.7501
  4.614   2.8119
  4.610   2.7913
  4.605   2.7192
  4.601   2.7295
  4.597   2.7295
  4.593   2.7501
  4.589   2.7604
  4.585   2.7192
  4.581   2.6780
  4.577   2.7295
  4.573   2.7398
  4.569   2.7089
  4.565   2.7192
  4.561   2.7295
  4.557   2.7501
  4.553   2.7398
  4.549   2.6780
  4.545   2.6574
  4.541   2.6883
  4.537   2.7089
  4.533   2.7295
  4.529   2.7398
  4.525   2.7089
  4.521   2.6677
  4.517   2.6986
  4.513   2.7295
  4.509   2.6986
  4.505   2.6986
  4.502   2.7810
  4.498   2.7810
  4.494   2.7398
  4.490   2.7295
  4.486   2.7398
  4.482   2.7192
  4.478   2.7192
  4.474   2.7398
  4.470   2.7604
  4.467   2.7810
  4.463   2.7604
  4.459   2.7501
  4.455   2.7810
  4.451   2.7810
  4.447   2.7707
  4.444   2.7707
  4.440   2.8222
  4.436   2.8325
  4.432   2.7913
  4.428   2.7707
  4.425   2.7295
  4.421   2.7501
  4.417   2.8222
  4.413   2.8634
  4.410   2.8222
  4.406   2.8016
  4.402   2.8325
  4.398   2.8325
  4.395   2.8016
  4.391   2.8119
  4.387   2.8428
  4.384   2.8531
  4.380   2.8634
  4.376   2.8840
  4.372   2.9046
  4.369   2.8531
  4.365   2.8222
  4.361   2.8325
  4.358   2.8325
  4.354   2.8531
  4.350   2.8634
  4.347   2.8840
  4.343   2.8943
  4.340   2.8531
  4.336   2.8325
  4.332   2.8119
  4.329   2.8428
  4.325   2.9046
  4.321   2.9046
  4.318   2.8840
  4.314   2.8943
  4.311   2.8840
  4.307   2.9458
  4.304   2.9355
  4.300   2.8222
  4.296   2.8119
  4.293   2.8531
  4.289   2.8634
  4.286   2.9046
  4.282   2.9664
  4.279   2.9355
  4.275   2.8531
  4.272   2.8737
  4.268   2.8737
  4.265   2.8531
  4.261   2.8428
  4.258   2.8428
  4.254   2.8325
  4.251   2.8634
  4.247   2.8634
  4.244   2.8325
  4.240   2.8222
  4.237   2.7913
  4.233   2.7810
  4.230   2.8016
  4.226   2.7398
  4.223   2.7089
  4.219   2.6780
  4.216   2.6574
  4.213   2.6574
  4.209   2.5956
  4.206   2.5132
  4.202   2.4926
  4.199   2.4823
  4.196   2.4102
  4.192   2.3793
  4.189   2.4411
  4.185   2.4411
  4.182   2.4308
  4.179   2.4617
  4.175   2.4308
  4.172   2.4308
  4.169   2.4720
  4.165   2.4720
  4.162   2.5029
  4.159   2.5132
  4.155   2.5647
  4.152   2.5853
  4.149   2.5338
  4.145   2.5132
  4.142   2.5338
  4.139   2.5647
  4.135   2.6780
  4.132   2.7707
  4.129   2.7398
  4.126   2.6883
  4.122   2.6677
  4.119   2.6780
  4.116   2.7192
  4.112   2.6883
  4.109   2.6883
  4.106   2.7089
  4.103   2.7398
  4.099   2.7501
  4.096   2.7295
  4.093   2.6986
  4.090   2.6986
  4.086   2.6780
  4.083   2.6471
  4.080   2.6780
  4.077   2.7089
  4.074   2.6574
  4.070   2.6265
  4.067   2.6162
  4.064   2.6162
  4.061   2.5956
  4.058   2.6162
  4.055   2.6471
  4.051   2.6265
  4.048   2.5956
  4.045   2.6162
  4.042   2.5956
  4.039   2.5750
  4.036   2.5235
  4.032   2.5441
  4.029   2.5338
  4.026   2.5441
  4.023   2.5750
  4.020   2.6162
  4.017   2.5853
  4.014   2.5647
  4.011   2.5647
  4.008   2.5647
  4.004   2.5132
  4.001   2.5544
  3.998   2.5647
  3.995   2.5441
  3.992   2.5544
  3.989   2.5750
  3.986   2.5544
  3.983   2.5544
  3.980   2.5544
  3.977   2.5750
  3.974   2.5441
  3.971   2.4926
  3.968   2.4720
  3.965   2.4823
  3.962   2.5441
  3.959   2.5750
  3.956   2.5441
  3.953   2.5647
  3.950   2.6368
  3.947   2.6471
  3.944   2.6368
  3.941   2.5956
  3.938   2.5750
  3.935   2.6059
  3.932   2.6265
  3.929   2.6883
  3.926   2.7192
  3.923   2.6986
  3.920   2.6677
  3.917   2.7192
  3.914   2.7707
  3.911   2.7810
  3.908   2.7501
  3.905   2.7913
  3.902   2.8428
  3.899   2.8634
  3.896   2.8737
  3.893   2.9355
  3.890   2.9149
  3.887   2.9149
  3.884   2.9149
  3.882   2.9561
  3.879   2.9561
  3.876   2.9561
  3.873   2.9870
  3.870   3.0797
  3.867   3.1003
  3.864   3.1312
  3.861   3.0900
  3.858   3.0797
  3.856   3.0385
  3.853   2.9870
  3.850   2.9767
  3.847   3.0076
  3.844   2.9870
  3.841   2.9870
  3.838   2.9664
  3.836   3.0179
  3.833   2.9664
  3.830   2.9149
  3.827   2.9149
  3.824   2.9561
  3.822   2.9870
  3.819   3.0694
  3.816   3.0385
  3.813   3.0179
  3.810   2.9767
  3.807   2.9767
  3.805   3.0282
  3.802   3.0076
  3.799   2.9149
  3.796   2.9561
  3.794   2.9664
  3.791   2.9149
  3.788   2.9458
  3.785   3.0488
  3.782   3.0282
  3.780   2.9355
  3.777   2.9664
  3.774   3.0591
  3.771   3.0797
  3.769   2.9870
  3.766   2.9046
  3.763   2.9664
  3.761   3.0076
  3.758   2.9767
  3.755   2.8840
  3.752   2.9561
  3.750   2.9870
  3.747   2.9767
  3.744   2.9561
  3.742   2.9870
  3.739   2.9458
  3.736   2.9355
  3.733   3.0076
  3.731   2.9973
  3.728   2.9355
  3.725   3.0282
  3.723   3.0900
  3.720   3.0385
  3.717   3.0076
  3.715   3.0385
  3.712   3.0488
  3.709   3.0488
  3.707   3.0076
  3.704   2.9973
  3.702   2.9973
  3.699   3.0488
  3.696   2.9973
  3.694   3.0179
  3.691   3.1209
  3.688   3.1827
  3.686   3.1312
  3.683   3.1621
  3.680   3.1724
  3.678   3.1518
  3.675   3.1106
  3.673   3.1106
  3.670   3.1003
  3.667   3.0797
  3.665   3.0282
  3.662   3.0797
  3.660   3.1209
  3.657   3.1106
  3.655   3.0694
  3.652   3.0591
  3.649   3.0488
  3.647   3.1106
  3.644   3.1518
  3.642   3.1827
  3.639   3.1312
  3.637   3.0385
  3.634   2.9561
  3.632   2.9870
  3.629   3.0282
  3.626   3.0488
  3.624   3.0694
  3.621   3.0694
  3.619   3.0900
  3.616   3.0385
  3.614   2.9664
  3.611   2.9767
  3.609   2.9561
  3.606   3.0076
  3.604   3.0179
  3.601   2.9767
  3.599   2.8634
  3.596   2.8737
  3.594   2.8840
  3.591   2.8840
  3.589   2.8737
  3.586   2.9046
  3.584   2.9149
  3.581   2.9046
  3.579   2.8531
