Name: Carnallite KMgCl3 * 6H2O
Type: Mineral
Class: Chloride
Subclass: None
Particle Size: Unsieved coarse powder
Sample No.: NMNH 98011
Owner: Smithsonian Institute, National Museum of Nat. History
Wavelength range: 0.40 - 14.05 um
Origin: Barcelona, Spain

Description: Carnallite from Barcelona, Spain - NMNH 98011





Measurement: Directional Hemispherical Reflectance
First Column: X
Second Column: Y
X Units: Wavelength (micrometers)
Y Units: Reflectance (percent)
First X Value: 14.05105
Last X Value: 0.40000
Number of X Values: 2756
Additional Information: None

 14.051   2.1115
 14.013   2.1939
 13.975   2.3587
 13.938   2.2969
 13.900   2.2866
 13.863   2.3175
 13.826   2.4514
 13.790   2.3381
 13.753   2.4102
 13.717   2.3587
 13.680   2.3999
 13.644   2.3896
 13.609   2.4514
 13.573   2.3587
 13.538   2.4205
 13.502   2.5132
 13.467   2.5647
 13.432   2.4514
 13.398   2.5235
 13.363   2.5132
 13.329   2.5029
 13.295   2.4411
 13.261   2.5544
 13.227   2.5338
 13.193   2.5647
 13.160   2.5338
 13.126   2.6059
 13.093   2.6368
 13.060   2.6883
 13.027   2.7089
 12.995   2.7707
 12.962   2.7089
 12.930   2.7398
 12.898   2.7192
 12.866   2.7810
 12.834   2.7707
 12.802   2.8016
 12.771   2.7604
 12.739   2.8016
 12.708   2.7398
 12.677   2.7604
 12.646   2.8119
 12.616   2.9149
 12.585   2.8634
 12.554   2.8634
 12.524   2.8016
 12.494   2.8325
 12.464   2.8119
 12.434   2.8325
 12.404   2.7810
 12.375   2.8119
 12.345   2.7707
 12.316   2.8119
 12.287   2.8222
 12.258   2.8737
 12.229   2.8325
 12.200   2.8634
 12.171   2.8737
 12.143   2.9252
 12.115   2.8428
 12.086   2.8634
 12.058   2.8634
 12.030   2.8943
 12.002   2.8634
 11.975   2.9355
 11.947   2.9149
 11.920   2.9458
 11.892   2.9355
 11.865   2.9767
 11.838   2.9870
 11.811   3.0488
 11.784   3.0385
 11.757   3.0591
 11.731   2.9973
 11.704   3.0488
 11.678   3.0179
 11.652   3.0076
 11.626   2.9870
 11.600   3.0694
 11.574   3.0591
 11.548   3.1003
 11.522   3.0591
 11.497   3.0797
 11.471   3.0694
 11.446   3.1106
 11.421   3.0488
 11.396   3.0385
 11.371   2.9458
 11.346   2.9458
 11.321   2.9046
 11.297   2.9355
 11.272   2.8737
 11.248   2.9458
 11.223   2.9870
 11.199   3.0488
 11.175   3.0282
 11.151   3.0385
 11.127   2.9767
 11.103   3.0282
 11.079   2.9767
 11.056   2.9664
 11.032   2.9252
 11.009   2.9046
 10.985   2.8531
 10.962   2.9149
 10.939   2.8531
 10.916   2.8943
 10.893   2.8737
 10.870   2.8428
 10.848   2.8222
 10.825   2.8325
 10.802   2.8016
 10.780   2.8531
 10.758   2.8222
 10.735   2.8016
 10.713   2.7810
 10.691   2.8016
 10.669   2.7604
 10.647   2.8325
 10.625   2.7913
 10.604   2.7604
 10.582   2.7295
 10.560   2.7501
 10.539   2.6986
 10.518   2.7501
 10.496   2.7604
 10.475   2.7398
 10.454   2.7192
 10.433   2.7707
 10.412   2.7295
 10.391   2.7604
 10.370   2.7398
 10.350   2.7398
 10.329   2.6883
 10.309   2.6986
 10.288   2.6677
 10.268   2.6780
 10.247   2.6574
 10.227   2.6883
 10.207   2.6471
 10.187   2.6471
 10.167   2.6162
 10.147   2.6471
 10.127   2.6471
 10.108   2.6368
 10.088   2.6265
 10.068   2.6986
 10.049   2.6883
 10.029   2.6986
 10.010   2.6883
  9.991   2.6883
  9.972   2.6265
  9.952   2.6574
  9.933   2.5956
  9.914   2.6162
  9.895   2.6265
  9.877   2.6574
  9.858   2.6059
  9.839   2.6162
  9.821   2.6780
  9.802   2.7192
  9.783   2.6677
  9.765   2.6883
  9.747   2.6883
  9.728   2.7295
  9.710   2.7089
  9.692   2.7604
  9.674   2.7810
  9.656   2.7707
  9.638   2.7707
  9.620   2.8531
  9.602   2.8531
  9.585   2.8634
  9.567   2.8016
  9.549   2.8428
  9.532   2.8428
  9.514   2.8428
  9.497   2.7810
  9.479   2.8222
  9.462   2.8016
  9.445   2.8016
  9.428   2.8016
  9.411   2.8634
  9.394   2.8840
  9.377   2.9561
  9.360   2.9561
  9.343   2.9973
  9.326   2.9870
  9.309   3.0282
  9.293   3.0179
  9.276   3.0591
  9.259   3.0797
  9.243   3.1209
  9.226   3.1106
  9.210   3.2136
  9.194   3.1621
  9.178   3.1312
  9.161   3.0900
  9.145   3.1106
  9.129   3.1415
  9.113   3.2239
  9.097   3.1827
  9.081   3.2033
  9.065   3.2857
  9.049   3.3475
  9.034   3.2445
  9.018   3.2445
  9.002   3.2651
  8.987   3.3578
  8.971   3.3269
  8.956   3.3887
  8.940   3.4711
  8.925   3.5329
  8.909   3.5020
  8.894   3.5844
  8.879   3.6256
  8.864   3.6874
  8.849   3.7080
  8.834   3.7595
  8.819   3.7492
  8.804   3.8213
  8.789   3.9140
  8.774   3.9861
  8.759   3.9346
  8.744   3.9655
  8.730   3.9449
  8.715   4.0170
  8.700   4.1097
  8.686   4.2230
  8.671   4.2539
  8.657   4.2539
  8.642   4.1612
  8.628   4.1303
  8.614   4.1406
  8.599   4.1715
  8.585   4.1612
  8.571   4.2333
  8.557   4.3260
  8.543   4.3775
  8.529   4.3569
  8.515   4.3775
  8.501   4.3569
  8.487   4.4084
  8.473   4.4496
  8.459   4.4908
  8.445   4.5217
  8.431   4.6350
  8.418   4.6453
  8.404   4.6865
  8.391   4.7380
  8.377   4.8101
  8.363   4.8925
  8.350   5.0161
  8.337   5.0367
  8.323   5.0985
  8.310   5.1500
  8.297   5.1706
  8.283   5.1191
  8.270   5.0882
  8.257   5.0470
  8.244   5.0161
  8.231   4.9646
  8.218   4.9852
  8.205   4.9543
  8.192   4.9440
  8.179   4.9440
  8.166   4.9852
  8.153   4.9646
  8.140   4.9646
  8.128   4.9749
  8.115   5.0161
  8.102   5.0367
  8.090   5.0470
  8.077   5.0367
  8.064   5.0264
  8.052   4.9440
  8.039   4.9543
  8.027   4.9337
  8.015   4.9337
  8.002   4.9646
  7.990   4.9852
  7.978   4.9440
  7.965   4.9440
  7.953   4.9543
  7.941   4.9955
  7.929   5.0470
  7.917   5.0573
  7.905   5.0161
  7.893   5.0470
  7.881   5.0161
  7.869   5.0367
  7.857   5.0264
  7.845   5.0779
  7.833   5.1294
  7.821   5.1500
  7.809   5.1294
  7.798   5.1809
  7.786   5.1912
  7.774   5.2530
  7.763   5.2633
  7.751   5.3148
  7.739   5.3560
  7.728   5.3972
  7.716   5.4281
  7.705   5.4796
  7.694   5.5208
  7.682   5.6547
  7.671   5.6753
  7.659   5.6856
  7.648   5.6959
  7.637   5.7474
  7.626   5.8195
  7.614   5.9225
  7.603   5.9431
  7.592   5.9740
  7.581   5.9740
  7.570   5.9740
  7.559   6.0049
  7.548   6.1079
  7.537   6.1388
  7.526   6.1800
  7.515   6.2109
  7.504   6.2933
  7.493   6.3345
  7.483   6.3345
  7.472   6.3345
  7.461   6.3036
  7.450   6.2830
  7.440   6.4272
  7.429   6.5199
  7.418   6.5920
  7.408   6.5817
  7.397   6.6229
  7.387   6.6538
  7.376   6.7053
  7.366   6.7774
  7.355   6.8083
  7.345   6.7156
  7.334   6.6332
  7.324   6.7053
  7.314   6.9216
  7.303   6.9319
  7.293   6.9319
  7.283   6.8907
  7.273   6.7774
  7.263   6.7671
  7.252   6.9113
  7.242   6.9834
  7.232   6.9834
  7.222   6.9113
  7.212   6.8392
  7.202   6.5817
  7.192   6.5302
  7.182   6.5405
  7.172   6.3448
  7.162   6.0255
  7.152   5.9431
  7.143   5.7886
  7.133   5.6753
  7.123   5.5723
  7.113   5.3663
  7.103   5.2324
  7.094   5.1912
  7.084   5.0470
  7.074   5.0058
  7.065   4.9749
  7.055   4.9234
  7.046   4.7277
  7.036   4.7380
  7.026   5.0985
  7.017   5.3148
  7.007   5.5517
  6.998   5.7680
  6.989   5.7783
  6.979   5.8916
  6.970   5.9740
  6.960   5.7577
  6.951   5.5414
  6.942   5.8607
  6.932   6.0049
  6.923   6.0461
  6.914   5.9843
  6.905   5.8504
  6.896   5.8092
  6.886   5.9019
  6.877   5.8710
  6.868   5.6959
  6.859   5.1603
  6.850   5.1603
  6.841   5.6547
  6.832   5.8607
  6.823   5.6753
  6.814   5.7268
  6.805   5.9019
  6.796   5.8092
  6.787   5.4178
  6.778   5.3663
  6.770   5.5723
  6.761   5.7989
  6.752   5.9431
  6.743   5.9328
  6.734   5.9843
  6.726   5.9534
  6.717   5.7783
  6.708   5.6650
  6.700   5.7886
  6.691   6.0976
  6.682   6.0152
  6.674   5.8607
  6.665   5.9946
  6.657   6.2830
  6.648   6.3963
  6.640   5.9740
  6.631   5.3972
  6.623   5.7371
  6.614   6.2727
  6.606   6.4787
  6.597   6.5302
  6.589   6.3757
  6.581   6.3551
  6.572   6.1800
  6.564   5.9843
  6.556   6.3448
  6.547   6.4684
  6.539   6.6023
  6.531   6.7877
  6.523   6.6950
  6.514   6.3860
  6.506   6.5920
  6.498   6.4169
  6.490   5.6959
  6.482   5.6135
  6.474   6.0152
  6.466   6.2830
  6.458   6.5611
  6.450   6.5302
  6.442   6.4581
  6.434   6.3345
  6.426   6.1182
  6.418   5.7886
  6.410   5.0882
  6.402   5.4384
  6.394   6.1491
  6.386   6.1697
  6.378   6.1182
  6.370   5.9328
  6.363   5.7577
  6.355   5.9534
  6.347   5.8092
  6.339   5.3354
  6.332   5.4281
  6.324   5.6135
  6.316   5.5517
  6.308   5.4281
  6.301   5.2736
  6.293   5.1603
  6.286   5.0676
  6.278   4.9646
  6.270   4.7689
  6.263   4.6041
  6.255   4.5114
  6.248   4.3981
  6.240   4.2848
  6.233   4.1715
  6.225   4.0273
  6.218   3.8625
  6.210   3.6874
  6.203   3.5535
  6.195   3.4299
  6.188   3.1827
  6.181   2.8943
  6.173   2.8634
  6.166   2.8634
  6.159   2.6368
  6.151   2.4308
  6.144   2.3793
  6.137   2.3278
  6.130   2.2763
  6.122   2.2660
  6.115   2.1733
  6.108   2.0497
  6.101   2.1424
  6.094   2.1218
  6.086   1.9982
  6.079   1.8643
  6.072   1.6995
  6.065   1.6686
  6.058   1.7819
  6.051   1.7510
  6.044   1.6377
  6.037   1.9158
  6.030   2.2660
  6.023   2.4926
  6.016   2.6059
  6.009   2.7192
  6.002   2.9561
  5.995   3.1003
  5.988   3.0282
  5.981   3.1106
  5.974   3.3475
  5.967   3.3887
  5.960   3.4814
  5.954   3.7080
  5.947   3.7595
  5.940   3.6771
  5.933   3.4608
  5.926   3.7904
  5.920   4.1612
  5.913   4.3157
  5.906   4.4908
  5.899   4.5320
  5.893   4.3569
  5.886   4.4908
  5.879   4.3981
  5.873   4.6659
  5.866   5.2839
  5.859   5.4178
  5.853   5.6856
  5.846   6.0976
  5.840   6.3963
  5.833   6.4684
  5.827   6.3448
  5.820   6.2212
  5.813   6.4787
  5.807   7.1688
  5.800   7.5087
  5.794   7.6941
  5.788   7.8383
  5.781   7.8795
  5.775   7.8177
  5.768   7.6220
  5.762   7.3233
  5.755   7.9722
  5.749   8.3533
  5.743   8.2400
  5.736   8.4563
  5.730   8.6314
  5.724   8.7344
  5.717   8.6520
  5.711   8.5284
  5.705   8.6726
  5.698   9.2185
  5.692   9.3833
  5.686   9.3421
  5.680   9.5069
  5.674   9.4142
  5.667   9.5996
  5.661   9.9395
  5.655   9.8468
  5.649   9.7129
  5.643   9.4863
  5.637   9.3215
  5.630   9.8674
  5.624  10.2485
  5.618  10.3515
  5.612  10.2279
  5.606  10.3309
  5.600  10.3412
  5.594  10.4133
  5.588  10.5369
  5.582  10.3000
  5.576   9.8880
  5.570  10.0734
  5.564  10.4030
  5.558  10.3927
  5.552  10.1970
  5.546  10.1970
  5.540  10.3618
  5.534  10.4236
  5.528  10.3618
  5.523  10.1867
  5.517  10.0631
  5.511  10.1146
  5.505  10.0734
  5.499   9.9292
  5.493   9.8571
  5.487   9.7438
  5.482   9.5172
  5.476   9.1773
  5.470   9.0743
  5.464   8.8580
  5.459   8.6829
  5.453   8.8374
  5.447   8.8065
  5.441   8.6726
  5.436   8.5387
  5.430   8.4151
  5.424   8.1267
  5.419   7.7250
  5.413   7.7765
  5.407   7.8692
  5.402   7.8177
  5.396   7.7559
  5.390   7.6529
  5.385   7.5705
  5.379   7.4984
  5.374   7.4778
  5.368   7.4675
  5.363   7.5087
  5.357   7.5087
  5.352   7.4057
  5.346   7.4057
  5.341   7.7662
  5.335   8.0752
  5.330   8.2709
  5.324   8.5078
  5.319   8.7859
  5.313   9.0434
  5.308   9.2803
  5.302   9.5378
  5.297   9.7747
  5.291   9.8777
  5.286  10.0631
  5.281  10.4030
  5.275  10.5781
  5.270  10.7944
  5.265  11.0725
  5.259  11.2991
  5.254  11.4536
  5.249  11.5875
  5.243  11.7214
  5.238  11.8141
  5.233  11.8759
  5.227  12.0407
  5.222  12.1746
  5.217  12.1952
  5.212  12.0407
  5.206  12.1128
  5.201  12.2776
  5.196  12.2570
  5.191  12.3497
  5.186  12.3909
  5.180  12.4115
  5.175  12.4115
  5.170  12.4012
  5.165  12.3806
  5.160  12.3394
  5.155  12.2776
  5.150  12.1437
  5.145  11.9789
  5.139  12.0407
  5.134  12.1334
  5.129  12.1643
  5.124  12.1540
  5.119  12.1437
  5.114  12.1231
  5.109  12.0922
  5.104  12.0716
  5.099  12.0716
  5.094  12.0510
  5.089  12.0510
  5.084  11.9789
  5.079  11.8759
  5.074  11.9068
  5.069  11.9789
  5.064  11.9789
  5.059  11.9583
  5.054  11.9068
  5.049  11.8862
  5.044  11.8141
  5.040  11.7626
  5.035  11.7008
  5.030  11.6081
  5.025  11.4948
  5.020  11.3712
  5.015  11.2991
  5.010  11.3403
  5.005  11.2785
  5.001  11.1961
  4.996  11.1343
  4.991  11.0828
  4.986  11.0107
  4.981  10.9386
  4.977  10.8974
  4.972  10.8562
  4.967  10.7738
  4.962  10.6811
  4.958  10.5575
  4.953  10.4751
  4.948  10.4339
  4.943  10.3618
  4.939  10.2794
  4.934  10.1970
  4.929  10.1043
  4.925   9.9807
  4.920   9.8777
  4.915   9.7953
  4.911   9.7026
  4.906   9.5790
  4.901   9.4554
  4.897   9.3524
  4.892   9.2597
  4.888   9.2082
  4.883   9.1258
  4.878   9.0022
  4.874   8.8786
  4.869   8.8065
  4.865   8.7447
  4.860   8.6623
  4.856   8.5696
  4.851   8.5181
  4.846   8.4666
  4.842   8.4151
  4.837   8.3842
  4.833   8.3739
  4.828   8.3533
  4.824   8.3121
  4.819   8.2812
  4.815   8.2709
  4.810   8.2915
  4.806   8.2812
  4.802   8.3018
  4.797   8.3327
  4.793   8.3327
  4.788   8.3018
  4.784   8.2812
  4.779   8.3018
  4.775   8.3121
  4.771   8.3018
  4.766   8.2400
  4.762   8.1782
  4.758   8.2194
  4.753   8.2194
  4.749   8.1473
  4.744   8.0958
  4.740   8.0855
  4.736   8.0031
  4.731   7.9310
  4.727   7.8898
  4.723   7.7868
  4.719   7.6632
  4.714   7.5808
  4.710   7.4778
  4.706   7.3336
  4.701   7.1997
  4.697   7.0967
  4.693   6.9834
  4.689   6.8907
  4.684   6.8804
  4.680   6.8804
  4.676   6.8392
  4.672   6.7980
  4.668   6.7465
  4.663   6.6950
  4.659   6.6744
  4.655   6.6641
  4.651   6.6847
  4.647   6.6744
  4.643   6.6435
  4.638   6.6332
  4.634   6.6229
  4.630   6.6126
  4.626   6.5714
  4.622   6.5199
  4.618   6.4787
  4.614   6.4684
  4.610   6.4375
  4.605   6.4066
  4.601   6.3757
  4.597   6.3345
  4.593   6.2727
  4.589   6.2212
  4.585   6.2006
  4.581   6.1388
  4.577   6.0770
  4.573   6.0358
  4.569   6.0358
  4.565   6.0152
  4.561   5.9534
  4.557   5.8916
  4.553   5.8195
  4.549   5.7886
  4.545   5.7680
  4.541   5.6959
  4.537   5.6341
  4.533   5.6135
  4.529   5.5723
  4.525   5.5002
  4.521   5.4384
  4.517   5.3972
  4.513   5.3354
  4.509   5.2839
  4.505   5.2324
  4.502   5.2015
  4.498   5.1809
  4.494   5.1397
  4.490   5.0882
  4.486   5.0573
  4.482   5.0161
  4.478   4.9749
  4.474   4.9028
  4.470   4.8204
  4.467   4.7998
  4.463   4.8307
  4.459   4.7895
  4.455   4.7277
  4.451   4.6968
  4.447   4.7174
  4.444   4.6762
  4.440   4.6350
  4.436   4.6247
  4.432   4.6556
  4.428   4.6453
  4.425   4.6350
  4.421   4.6350
  4.417   4.6556
  4.413   4.6556
  4.410   4.6247
  4.406   4.6247
  4.402   4.6659
  4.398   4.6762
  4.395   4.6453
  4.391   4.6453
  4.387   4.7071
  4.384   4.7380
  4.380   4.7483
  4.376   4.7895
  4.372   4.8410
  4.369   4.8616
  4.365   4.9440
  4.361   4.9955
  4.358   5.0882
  4.354   5.1500
  4.350   5.1500
  4.347   5.1809
  4.343   5.2530
  4.340   5.3251
  4.336   5.3972
  4.332   5.5208
  4.329   5.6444
  4.325   5.7680
  4.321   5.9019
  4.318   6.0255
  4.314   6.1903
  4.311   6.3654
  4.307   6.5302
  4.304   6.6332
  4.300   6.7362
  4.296   6.9216
  4.293   7.1585
  4.289   7.3748
  4.286   7.6014
  4.282   7.8177
  4.279   8.0237
  4.275   8.2297
  4.272   8.4254
  4.268   8.6314
  4.265   8.8683
  4.261   9.0331
  4.258   9.1773
  4.254   9.3730
  4.251   9.7129
  4.247  10.0940
  4.244  10.4751
  4.240  10.7841
  4.237  11.1034
  4.233  11.3918
  4.230  11.6287
  4.226  11.8553
  4.223  12.0510
  4.219  12.1643
  4.216  12.2364
  4.213  12.3291
  4.209  12.4424
  4.206  12.5145
  4.202  12.6175
  4.199  12.7720
  4.196  12.9162
  4.192  13.0604
  4.189  13.2046
  4.185  13.3797
  4.182  13.5857
  4.179  13.7505
  4.175  13.9359
  4.172  14.1316
  4.169  14.3273
  4.165  14.4818
  4.162  14.6878
  4.159  14.8629
  4.155  15.0174
  4.152  15.1307
  4.149  15.2543
  4.145  15.3985
  4.142  15.5530
  4.139  15.7075
  4.135  15.8311
  4.132  15.9650
  4.129  16.1195
  4.126  16.2431
  4.122  16.3667
  4.119  16.5315
  4.116  16.6963
  4.112  16.7890
  4.109  16.9126
  4.106  17.0465
  4.103  17.1907
  4.099  17.2731
  4.096  17.3864
  4.093  17.4688
  4.090  17.5924
  4.086  17.7881
  4.083  17.9323
  4.080  17.9838
  4.077  18.0971
  4.074  18.1898
  4.070  18.2928
  4.067  18.4267
  4.064  18.5812
  4.061  18.6842
  4.058  18.7872
  4.055  18.8696
  4.051  18.9623
  4.048  19.0344
  4.045  19.1374
  4.042  19.2301
  4.039  19.3228
  4.036  19.3846
  4.032  19.4361
  4.029  19.5082
  4.026  19.6215
  4.023  19.6627
  4.020  19.7245
  4.017  19.8481
  4.014  19.9511
  4.011  20.0129
  4.008  20.0026
  4.004  19.9923
  4.001  20.0438
  3.998  19.9717
  3.995  19.9305
  3.992  19.8893
  3.989  19.8584
  3.986  19.7348
  3.983  19.6009
  3.980  19.4258
  3.977  19.2301
  3.974  19.0241
  3.971  18.7872
  3.968  18.4782
  3.965  18.1589
  3.962  17.8705
  3.959  17.7160
  3.956  17.5924
  3.953  17.5100
  3.950  17.4585
  3.947  17.4688
  3.944  17.4894
  3.941  17.5924
  3.938  17.7469
  3.935  17.9220
  3.932  18.0559
  3.929  18.2413
  3.926  18.3752
  3.923  18.4782
  3.920  18.6430
  3.917  18.8490
  3.914  18.9829
  3.911  19.0962
  3.908  19.1992
  3.905  19.3846
  3.902  19.5082
  3.899  19.5906
  3.896  19.7142
  3.893  19.8790
  3.890  20.0541
  3.887  20.2395
  3.884  20.3837
  3.882  20.6000
  3.879  20.7442
  3.876  20.9090
  3.873  21.0017
  3.870  21.0223
  3.867  21.1150
  3.864  21.2283
  3.861  21.2180
  3.858  21.2592
  3.856  21.2592
  3.853  21.2386
  3.850  21.2489
  3.847  21.2901
  3.844  21.3004
  3.841  21.3416
  3.838  21.3107
  3.836  21.3622
  3.833  21.4137
  3.830  21.4549
  3.827  21.4652
  3.824  21.4961
  3.822  21.4858
  3.819  21.4858
  3.816  21.4343
  3.813  21.4652
  3.810  21.4652
  3.807  21.4137
  3.805  21.3828
  3.802  21.3828
  3.799  21.4137
  3.796  21.4240
  3.794  21.3416
  3.791  21.3313
  3.788  21.3725
  3.785  21.4240
  3.782  21.3828
  3.780  21.3107
  3.777  21.2901
  3.774  21.3622
  3.771  21.3931
  3.769  21.4549
  3.766  21.5167
  3.763  21.5476
  3.761  21.4961
  3.758  21.5167
  3.755  21.5579
  3.752  21.5682
  3.750  21.5476
  3.747  21.5373
  3.744  21.5476
  3.742  21.5579
  3.739  21.4961
  3.736  21.4652
  3.733  21.4652
  3.731  21.4446
  3.728  21.4240
  3.725  21.3931
  3.723  21.3828
  3.720  21.3210
  3.717  21.2283
  3.715  21.2077
  3.712  21.1768
  3.709  21.1253
  3.707  21.0944
  3.704  21.0326
  3.702  20.9090
  3.699  20.8266
  3.696  20.7442
  3.694  20.6412
  3.691  20.5279
  3.688  20.5176
  3.686  20.4146
  3.683  20.3013
  3.680  20.1880
  3.678  20.0953
  3.675  20.0747
  3.673  20.0438
  3.670  19.8893
  3.667  19.7657
  3.665  19.6524
  3.662  19.6009
  3.660  19.4567
  3.657  19.2919
  3.655  19.1683
  3.652  19.0653
  3.649  19.0035
  3.647  18.9417
  3.644  18.8078
  3.642  18.7460
  3.639  18.6842
  3.637  18.6121
  3.634  18.4679
  3.632  18.3443
  3.629  18.2516
  3.626  18.1280
  3.624  18.0147
  3.621  17.9323
  3.619  17.8705
  3.616  17.8396
  3.614  17.7469
  3.611  17.6748
  3.609  17.5512
  3.606  17.4173
  3.604  17.2525
  3.601  17.1083
  3.599  17.0671
  3.596  17.0362
  3.594  16.9126
  3.591  16.8096
  3.589  16.7272
