Name: Kainite MgSO4 * KCL * 3H2O
Type: Mineral
Class: Chlorides
Subclass: None
Particle Size: Unsieved coarse powder
Sample No.: NMNH 83904
Owner: Smithsonian Institute, National Museum of Nat. History
Wavelength range: 0.40 - 14.05 um
Origin: Stassfurt, Germany

Description: NAME=Kainite from Stassfurt, Germany - NMNH 83904





Measurement: Directional Hemispherical Reflectance
First Column: X
Second Column: Y
X Units: Wavelength (micrometers)
Y Units: Reflectance (percent)
First X Value: 14.05105
Last X Value: 0.40000
Number of X Values: 2756
Additional Information: None

 14.051   1.7201
 14.013   1.7098
 13.975   1.7407
 13.938   1.5862
 13.900   1.5965
 13.863   1.6377
 13.826   1.8334
 13.790   1.7613
 13.753   1.9261
 13.717   1.9982
 13.680   2.0806
 13.644   1.8334
 13.609   1.7613
 13.573   1.7819
 13.538   1.9364
 13.502   2.0291
 13.467   2.1321
 13.432   2.0600
 13.398   2.1321
 13.363   2.0497
 13.329   2.0394
 13.295   2.0703
 13.261   2.1630
 13.227   1.9673
 13.193   1.9364
 13.160   1.9570
 13.126   1.9673
 13.093   1.8128
 13.060   1.8334
 13.027   1.8643
 12.995   1.8643
 12.962   1.7098
 12.930   1.6995
 12.898   1.7098
 12.866   1.7510
 12.834   1.6377
 12.802   1.6583
 12.771   1.6377
 12.739   1.6480
 12.708   1.6068
 12.677   1.6377
 12.646   1.6377
 12.616   1.6377
 12.585   1.6068
 12.554   1.6583
 12.524   1.6068
 12.494   1.6686
 12.464   1.6480
 12.434   1.6892
 12.404   1.5965
 12.375   1.5553
 12.345   1.4626
 12.316   1.5141
 12.287   1.4729
 12.258   1.4008
 12.229   1.3081
 12.200   1.3390
 12.171   1.3081
 12.143   1.3390
 12.115   1.3184
 12.086   1.3802
 12.058   1.2875
 12.030   1.2669
 12.002   1.1742
 11.975   1.2051
 11.947   1.1433
 11.920   1.1330
 11.892   1.0712
 11.865   1.1433
 11.838   1.1124
 11.811   1.1742
 11.784   1.2566
 11.757   1.2875
 11.731   1.1433
 11.704   1.2154
 11.678   1.1845
 11.652   1.1639
 11.626   1.1845
 11.600   1.3287
 11.574   1.3802
 11.548   1.4111
 11.522   1.3493
 11.497   1.4008
 11.471   1.3802
 11.446   1.4626
 11.421   1.3802
 11.396   1.4214
 11.371   1.4214
 11.346   1.4317
 11.321   1.4935
 11.297   1.5347
 11.272   1.4935
 11.248   1.5862
 11.223   1.5862
 11.199   1.5965
 11.175   1.5759
 11.151   1.6274
 11.127   1.6789
 11.103   1.7716
 11.079   1.6686
 11.056   1.5965
 11.032   1.5656
 11.009   1.6377
 10.985   1.6789
 10.962   1.7922
 10.939   1.7407
 10.916   1.7201
 10.893   1.6583
 10.870   1.6377
 10.848   1.6480
 10.825   1.7304
 10.802   1.7304
 10.780   1.8334
 10.758   1.8540
 10.735   1.8746
 10.713   1.8540
 10.691   1.8849
 10.669   1.8952
 10.647   1.9570
 10.625   1.9364
 10.604   2.0394
 10.582   2.1012
 10.560   2.0806
 10.539   2.0291
 10.518   2.1733
 10.496   2.2145
 10.475   2.2557
 10.454   2.2557
 10.433   2.2969
 10.412   2.2866
 10.391   2.3175
 10.370   2.3175
 10.350   2.3793
 10.329   2.3999
 10.309   2.3999
 10.288   2.2866
 10.268   2.3484
 10.247   2.3690
 10.227   2.4205
 10.207   2.4926
 10.187   2.5750
 10.167   2.4617
 10.147   2.4411
 10.127   2.3999
 10.108   2.4720
 10.088   2.5441
 10.068   2.5544
 10.049   2.5235
 10.029   2.5853
 10.010   2.5029
  9.991   2.5132
  9.972   2.5544
  9.952   2.6162
  9.933   2.5853
  9.914   2.5441
  9.895   2.5132
  9.877   2.5956
  9.858   2.6368
  9.839   2.6677
  9.821   2.5956
  9.802   2.6574
  9.783   2.5750
  9.765   2.4205
  9.747   2.3072
  9.728   2.2763
  9.710   2.3278
  9.692   2.5029
  9.674   2.6162
  9.656   2.7398
  9.638   2.7192
  9.620   2.7295
  9.602   2.7295
  9.585   2.8222
  9.567   2.8016
  9.549   2.8428
  9.532   2.8943
  9.514   2.9664
  9.497   2.9561
  9.479   3.0179
  9.462   2.9870
  9.445   2.9973
  9.428   2.9870
  9.411   3.0900
  9.394   3.0694
  9.377   3.1003
  9.360   3.0797
  9.343   3.1621
  9.326   3.1827
  9.309   3.2239
  9.293   3.3063
  9.276   3.3887
  9.259   3.3784
  9.243   3.5020
  9.226   3.5226
  9.210   3.5638
  9.194   3.6256
  9.178   3.7492
  9.161   3.7595
  9.145   3.9243
  9.129   4.0067
  9.113   4.0376
  9.097   4.0582
  9.081   4.2024
  9.065   4.3054
  9.049   4.4908
  9.034   4.6144
  9.018   4.9234
  9.002   5.3045
  8.987   5.7062
  8.971   6.1903
  8.956   6.7671
  8.940   7.3954
  8.925   8.2400
  8.909   9.2185
  8.894  10.4442
  8.879  11.5669
  8.864  12.3188
  8.849  12.2158
  8.834  11.7008
  8.819  11.7523
  8.804  12.7720
  8.789  13.9874
  8.774  14.3582
  8.759  13.3076
  8.744  11.3197
  8.730   9.3112
  8.715   7.7868
  8.700   6.4272
  8.686   5.3354
  8.671   4.4496
  8.657   3.7286
  8.642   2.9870
  8.628   2.5544
  8.614   2.5750
  8.599   2.9973
  8.585   3.8831
  8.571   5.1706
  8.557   6.0152
  8.543   6.6332
  8.529   7.5602
  8.515   9.0228
  8.501  10.4030
  8.487  11.4124
  8.473  12.0098
  8.459  12.2570
  8.445  11.9789
  8.431  11.1240
  8.418   9.7232
  8.404   8.3945
  8.391   7.3851
  8.377   6.6229
  8.363   6.0152
  8.350   5.6856
  8.337   5.2015
  8.323   4.5217
  8.310   3.6256
  8.297   2.8737
  8.283   2.1836
  8.270   1.6274
  8.257   1.1433
  8.244   0.8549
  8.231   0.6180
  8.218   0.4841
  8.205   0.4326
  8.192   0.4120
  8.179   0.3502
  8.166   0.3811
  8.153   0.3502
  8.140   0.3502
  8.128   0.2987
  8.115   0.2987
  8.102   0.3296
  8.090   0.3502
  8.077   0.3605
  8.064   0.4429
  8.052   0.4223
  8.039   0.3811
  8.027   0.4017
  8.015   0.4841
  8.002   0.4532
  7.990   0.5150
  7.978   0.5047
  7.965   0.4738
  7.953   0.4841
  7.941   0.4944
  7.929   0.4944
  7.917   0.5665
  7.905   0.5562
  7.893   0.5665
  7.881   0.5871
  7.869   0.6798
  7.857   0.7107
  7.845   0.7416
  7.833   0.7004
  7.821   0.6489
  7.809   0.6695
  7.798   0.7725
  7.786   0.7519
  7.774   0.7725
  7.763   0.8034
  7.751   0.8446
  7.739   0.8240
  7.728   0.8240
  7.716   0.8549
  7.705   0.9270
  7.694   0.8961
  7.682   0.8446
  7.671   0.8137
  7.659   0.9064
  7.648   0.9064
  7.637   0.9270
  7.626   0.9373
  7.614   0.9785
  7.603   0.9785
  7.592   1.0609
  7.581   1.0918
  7.570   1.0815
  7.559   1.0197
  7.548   1.0506
  7.537   1.0197
  7.526   0.9991
  7.515   1.0197
  7.504   1.0815
  7.493   1.0300
  7.483   1.0300
  7.472   1.0300
  7.461   1.0506
  7.450   1.0918
  7.440   1.1948
  7.429   1.1742
  7.418   1.1536
  7.408   1.1227
  7.397   1.0918
  7.387   1.1021
  7.376   1.1639
  7.366   1.1948
  7.355   1.1639
  7.345   1.1742
  7.334   1.2566
  7.324   1.2566
  7.314   1.2360
  7.303   1.2154
  7.293   1.2978
  7.283   1.3081
  7.273   1.2154
  7.263   1.1433
  7.252   1.1948
  7.242   1.2360
  7.232   1.2772
  7.222   1.2669
  7.212   1.2669
  7.202   1.2772
  7.192   1.3287
  7.182   1.2875
  7.172   1.2463
  7.162   1.2154
  7.152   1.2772
  7.143   1.2772
  7.133   1.2978
  7.123   1.3493
  7.113   1.3699
  7.103   1.3390
  7.094   1.3802
  7.084   1.3699
  7.074   1.3596
  7.065   1.3493
  7.055   1.3699
  7.046   1.3081
  7.036   1.2978
  7.026   1.3184
  7.017   1.3802
  7.007   1.4317
  6.998   1.4214
  6.989   1.3699
  6.979   1.3802
  6.970   1.4008
  6.960   1.4111
  6.951   1.3287
  6.942   1.2978
  6.932   1.2978
  6.923   1.3390
  6.914   1.3184
  6.905   1.3596
  6.896   1.3802
  6.886   1.3596
  6.877   1.2875
  6.868   1.3081
  6.859   1.2875
  6.850   1.2978
  6.841   1.3184
  6.832   1.3287
  6.823   1.2669
  6.814   1.2978
  6.805   1.3287
  6.796   1.3184
  6.787   1.2360
  6.778   1.3081
  6.770   1.3596
  6.761   1.3699
  6.752   1.3905
  6.743   1.3905
  6.734   1.4008
  6.726   1.4317
  6.717   1.3699
  6.708   1.3596
  6.700   1.3802
  6.691   1.4214
  6.682   1.4317
  6.674   1.3596
  6.665   1.3081
  6.657   1.3905
  6.648   1.3699
  6.640   1.3184
  6.631   1.3081
  6.623   1.3905
  6.614   1.3493
  6.606   1.3699
  6.597   1.4317
  6.589   1.4214
  6.581   1.3699
  6.572   1.3390
  6.564   1.3390
  6.556   1.4111
  6.547   1.3493
  6.539   1.3390
  6.531   1.4111
  6.523   1.4111
  6.514   1.3699
  6.506   1.4214
  6.498   1.3493
  6.490   1.2669
  6.482   1.3493
  6.474   1.4317
  6.466   1.4111
  6.458   1.4317
  6.450   1.4111
  6.442   1.4008
  6.434   1.3802
  6.426   1.4008
  6.418   1.3802
  6.410   1.2257
  6.402   1.2669
  6.394   1.4008
  6.386   1.4523
  6.378   1.4523
  6.370   1.3699
  6.363   1.4111
  6.355   1.4420
  6.347   1.3699
  6.339   1.3493
  6.332   1.4111
  6.324   1.4420
  6.316   1.4523
  6.308   1.4008
  6.301   1.4111
  6.293   1.3905
  6.286   1.4111
  6.278   1.3905
  6.270   1.3802
  6.263   1.4111
  6.255   1.4317
  6.248   1.4420
  6.240   1.5038
  6.233   1.4523
  6.225   1.3802
  6.218   1.4214
  6.210   1.4523
  6.203   1.4523
  6.195   1.4523
  6.188   1.4111
  6.181   1.3596
  6.173   1.3905
  6.166   1.4317
  6.159   1.4626
  6.151   1.5244
  6.144   1.4935
  6.137   1.4111
  6.130   1.4111
  6.122   1.4214
  6.115   1.3493
  6.108   1.3493
  6.101   1.4317
  6.094   1.4729
  6.086   1.3802
  6.079   1.2669
  6.072   1.1536
  6.065   1.0506
  6.058   1.0403
  6.051   1.0300
  6.044   0.9682
  6.037   0.9991
  6.030   0.9991
  6.023   1.0197
  6.016   1.0403
  6.009   1.0197
  6.002   1.0094
  5.995   0.9991
  5.988   0.9270
  5.981   0.9373
  5.974   0.9476
  5.967   0.9476
  5.960   0.9991
  5.954   1.0815
  5.947   1.1124
  5.940   1.0918
  5.933   0.9991
  5.926   1.0300
  5.920   1.0712
  5.913   1.1330
  5.906   1.1948
  5.899   1.1948
  5.893   1.1742
  5.886   1.2360
  5.879   1.2154
  5.873   1.1742
  5.866   1.1948
  5.859   1.2257
  5.853   1.3287
  5.846   1.4214
  5.840   1.4626
  5.833   1.5038
  5.827   1.5038
  5.820   1.5244
  5.813   1.5862
  5.807   1.6995
  5.800   1.7201
  5.794   1.7922
  5.788   1.8952
  5.781   1.9467
  5.775   1.9879
  5.768   2.0085
  5.762   1.9261
  5.755   2.0085
  5.749   2.1424
  5.743   2.1836
  5.736   2.2557
  5.730   2.3484
  5.724   2.3896
  5.717   2.4205
  5.711   2.4720
  5.705   2.5647
  5.698   2.6677
  5.692   2.7604
  5.686   2.8119
  5.680   2.8634
  5.674   2.8840
  5.667   2.9664
  5.661   3.0488
  5.655   3.0591
  5.649   3.1003
  5.643   3.1312
  5.637   3.1209
  5.630   3.2754
  5.624   3.3990
  5.618   3.4402
  5.612   3.4505
  5.606   3.5226
  5.600   3.5741
  5.594   3.6565
  5.588   3.7286
  5.582   3.6668
  5.576   3.6359
  5.570   3.7595
  5.564   3.8419
  5.558   3.8522
  5.552   3.8831
  5.546   3.9037
  5.540   3.9964
  5.534   4.0891
  5.528   4.1097
  5.523   4.1200
  5.517   4.1715
  5.511   4.2333
  5.505   4.2848
  5.499   4.3363
  5.493   4.3363
  5.487   4.3466
  5.482   4.3466
  5.476   4.3363
  5.470   4.4187
  5.464   4.4187
  5.459   4.3569
  5.453   4.4702
  5.447   4.5320
  5.441   4.5732
  5.436   4.6144
  5.430   4.6556
  5.424   4.6041
  5.419   4.5320
  5.413   4.6247
  5.407   4.6659
  5.402   4.6762
  5.396   4.7174
  5.390   4.7174
  5.385   4.7483
  5.379   4.7586
  5.374   4.7689
  5.368   4.7586
  5.363   4.7380
  5.357   4.7277
  5.352   4.6865
  5.346   4.6762
  5.341   4.7792
  5.335   4.8616
  5.330   4.8822
  5.324   4.8822
  5.319   4.9028
  5.313   4.9028
  5.308   4.9440
  5.302   4.9543
  5.297   4.9749
  5.291   4.9852
  5.286   5.0264
  5.281   5.0367
  5.275   5.0470
  5.270   5.0882
  5.265   5.1397
  5.259   5.1397
  5.254   5.1500
  5.249   5.1809
  5.243   5.2324
  5.238   5.2736
  5.233   5.3148
  5.227   5.3663
  5.222   5.4075
  5.217   5.3972
  5.212   5.3869
  5.206   5.4487
  5.201   5.5002
  5.196   5.5105
  5.191   5.5826
  5.186   5.5723
  5.180   5.5517
  5.175   5.5826
  5.170   5.5826
  5.165   5.5929
  5.160   5.6032
  5.155   5.5620
  5.150   5.5414
  5.145   5.4899
  5.139   5.4899
  5.134   5.5002
  5.129   5.4899
  5.124   5.5002
  5.119   5.5620
  5.114   5.5620
  5.109   5.5105
  5.104   5.4796
  5.099   5.4178
  5.094   5.3560
  5.089   5.3663
  5.084   5.3663
  5.079   5.3354
  5.074   5.3148
  5.069   5.3148
  5.064   5.3148
  5.059   5.3045
  5.054   5.2839
  5.049   5.2736
  5.044   5.3045
  5.040   5.2736
  5.035   5.2221
  5.030   5.1603
  5.025   5.1088
  5.020   5.1191
  5.015   5.1191
  5.010   5.1088
  5.005   5.1088
  5.001   5.0985
  4.996   5.0470
  4.991   4.9749
  4.986   4.9543
  4.981   4.9749
  4.977   4.9852
  4.972   4.9543
  4.967   4.9234
  4.962   4.8822
  4.958   4.8204
  4.953   4.7998
  4.948   4.7689
  4.943   4.7586
  4.939   4.7277
  4.934   4.6968
  4.929   4.6865
  4.925   4.6453
  4.920   4.5938
  4.915   4.5320
  4.911   4.4805
  4.906   4.4702
  4.901   4.4496
  4.897   4.3569
  4.892   4.2951
  4.888   4.3260
  4.883   4.3157
  4.878   4.2848
  4.874   4.2642
  4.869   4.2127
  4.865   4.1612
  4.860   4.1612
  4.856   4.1612
  4.851   4.1406
  4.846   4.0994
  4.842   4.0273
  4.837   3.9964
  4.833   3.9037
  4.828   3.8728
  4.824   3.8316
  4.819   3.7904
  4.815   3.7595
  4.810   3.7286
  4.806   3.7286
  4.802   3.6668
  4.797   3.5844
  4.793   3.5741
  4.788   3.5638
  4.784   3.5020
  4.779   3.4917
  4.775   3.4917
  4.771   3.4917
  4.766   3.4711
  4.762   3.3784
  4.758   3.2857
  4.753   3.2548
  4.749   3.2239
  4.744   3.1209
  4.740   3.0591
  4.736   3.0076
  4.731   2.9664
  4.727   2.8840
  4.723   2.7913
  4.719   2.8016
  4.714   2.8325
  4.710   2.8531
  4.706   2.8840
  4.701   2.8634
  4.697   2.8222
  4.693   2.7913
  4.689   2.8119
  4.684   2.8428
  4.680   2.8325
  4.676   2.7398
  4.672   2.6059
  4.668   2.5338
  4.663   2.5853
  4.659   2.5544
  4.655   2.5544
  4.651   2.5338
  4.647   2.5029
  4.643   2.5338
  4.638   2.5132
  4.634   2.5029
  4.630   2.5029
  4.626   2.4617
  4.622   2.3690
  4.618   2.3072
  4.614   2.3278
  4.610   2.3793
  4.605   2.3690
  4.601   2.3072
  4.597   2.2969
  4.593   2.3381
  4.589   2.3175
  4.585   2.2660
  4.581   2.2351
  4.577   2.2660
  4.573   2.3175
  4.569   2.3278
  4.565   2.3072
  4.561   2.2145
  4.557   2.1527
  4.553   2.1630
  4.549   2.1321
  4.545   2.0909
  4.541   2.1836
  4.537   2.2763
  4.533   2.2763
  4.529   2.2557
  4.525   2.2557
  4.521   2.3175
  4.517   2.3381
  4.513   2.3072
  4.509   2.2660
  4.505   2.2763
  4.502   2.3381
  4.498   2.3690
  4.494   2.3690
  4.490   2.3896
  4.486   2.4102
  4.482   2.4102
  4.478   2.4411
  4.474   2.4926
  4.470   2.5338
  4.467   2.5338
  4.463   2.5235
  4.459   2.5441
  4.455   2.5750
  4.451   2.5853
  4.447   2.6162
  4.444   2.6677
  4.440   2.6986
  4.436   2.7398
  4.432   2.7810
  4.428   2.7707
  4.425   2.8325
  4.421   2.8737
  4.417   2.8428
  4.413   2.8737
  4.410   2.9149
  4.406   2.9561
  4.402   3.0385
  4.398   2.9870
  4.395   2.8943
  4.391   2.9046
  4.387   3.0076
  4.384   3.0179
  4.380   2.9870
  4.376   2.9973
  4.372   2.9973
  4.369   3.0385
  4.365   3.0900
  4.361   3.1003
  4.358   3.1106
  4.354   3.1106
  4.350   3.0900
  4.347   3.1415
  4.343   3.2754
  4.340   3.3681
  4.336   3.3475
  4.332   3.3063
  4.329   3.3681
  4.325   3.4814
  4.321   3.5123
  4.318   3.4711
  4.314   3.4608
  4.311   3.4814
  4.307   3.5741
  4.304   3.6256
  4.300   3.6462
  4.296   3.6874
  4.293   3.7595
  4.289   3.7286
  4.286   3.6874
  4.282   3.6565
  4.279   3.6668
  4.275   3.7698
  4.272   3.9449
  4.268   4.0170
  4.265   3.9449
  4.261   3.9037
  4.258   3.8934
  4.254   3.8625
  4.251   3.9346
  4.247   4.0273
  4.244   4.1406
  4.240   4.2436
  4.237   4.3466
  4.233   4.4290
  4.230   4.5217
  4.226   4.5423
  4.223   4.5423
  4.219   4.5217
  4.216   4.5732
  4.213   4.6659
  4.209   4.7689
  4.206   4.9131
  4.202   5.0367
  4.199   5.0985
  4.196   5.1603
  4.192   5.2221
  4.189   5.2221
  4.185   5.3045
  4.182   5.4281
  4.179   5.4899
  4.175   5.5517
  4.172   5.5826
  4.169   5.5929
  4.165   5.6444
  4.162   5.7165
  4.159   5.7062
  4.155   5.7783
  4.152   5.8607
  4.149   5.8607
  4.145   5.8813
  4.142   5.9431
  4.139   5.9534
  4.135   5.9740
  4.132   5.9946
  4.129   6.0358
  4.126   6.0667
  4.122   6.1594
  4.119   6.2624
  4.116   6.3757
  4.112   6.3242
  4.109   6.2727
  4.106   6.3757
  4.103   6.4375
  4.099   6.4684
  4.096   6.5096
  4.093   6.5405
  4.090   6.6126
  4.086   6.6641
  4.083   6.7671
  4.080   6.8495
  4.077   6.8392
  4.074   6.8701
  4.070   6.8804
  4.067   6.8495
  4.064   6.9319
  4.061   7.0040
  4.058   7.0246
  4.055   7.0452
  4.051   7.0967
  4.048   7.0658
  4.045   7.1276
  4.042   7.2100
  4.039   7.3233
  4.036   7.3748
  4.032   7.3748
  4.029   7.4057
  4.026   7.4572
  4.023   7.4366
  4.020   7.4778
  4.017   7.6323
  4.014   7.7559
  4.011   7.8177
  4.008   7.8177
  4.004   7.7868
  4.001   7.9001
  3.998   8.0134
  3.995   8.0340
  3.992   8.0958
  3.989   8.2297
  3.986   8.3018
  3.983   8.4151
  3.980   8.4769
  3.977   8.4872
  3.974   8.4769
  3.971   8.4563
  3.968   8.5490
  3.965   8.6417
  3.962   8.6108
  3.959   8.6314
  3.956   8.7447
  3.953   8.8168
  3.950   8.8889
  3.947   8.8889
  3.944   8.9404
  3.941   9.0125
  3.938   9.0228
  3.935   9.0537
  3.932   9.0640
  3.929   9.0846
  3.926   9.1155
  3.923   9.1567
  3.920   9.2803
  3.917   9.3524
  3.914   9.3833
  3.911   9.3524
  3.908   9.3318
  3.905   9.3730
  3.902   9.4039
  3.899   9.4451
  3.896   9.4760
  3.893   9.5687
  3.890   9.5996
  3.887   9.6305
  3.884   9.6511
  3.882   9.7129
  3.879   9.7335
  3.876   9.7438
  3.873   9.7747
  3.870   9.8365
  3.867   9.8159
  3.864   9.8365
  3.861   9.8262
  3.858   9.8159
  3.856   9.8880
  3.853   9.9292
  3.850   9.9498
  3.847   9.9807
  3.844   9.9601
  3.841   9.8880
  3.838   9.8777
  3.836   9.8983
  3.833   9.8571
  3.830   9.7953
  3.827   9.7335
  3.824   9.7850
  3.822   9.8468
  3.819   9.7850
  3.816   9.7850
  3.813   9.8468
  3.810   9.7747
  3.807   9.7335
  3.805   9.7129
  3.802   9.7129
  3.799   9.7335
  3.796   9.7232
  3.794   9.6820
  3.791   9.5893
  3.788   9.5172
  3.785   9.5275
  3.782   9.5275
  3.780   9.4863
  3.777   9.3730
  3.774   9.3112
  3.771   9.2494
  3.769   9.2185
  3.766   9.1773
  3.763   9.1670
  3.761   9.1979
  3.758   9.1876
  3.755   9.0743
  3.752   9.0331
  3.750   8.9507
  3.747   8.8683
  3.744   8.8271
  3.742   8.8477
  3.739   8.8271
  3.736   8.7550
  3.733   8.6623
  3.731   8.6211
  3.728   8.5696
  3.725   8.4666
  3.723   8.4769
  3.720   8.4769
  3.717   8.4254
  3.715   8.3842
  3.712   8.3842
  3.709   8.3533
  3.707   8.2194
  3.704   8.0340
  3.702   7.9001
  3.699   7.8898
  3.696   7.9001
  3.694   7.8486
  3.691   7.7662
  3.688   7.6941
  3.686   7.6323
  3.683   7.6014
  3.680   7.4881
  3.678   7.4675
  3.675   7.3954
  3.673   7.3748
  3.670   7.2615
  3.667   7.1482
  3.665   7.0967
  3.662   7.0658
  3.660   6.9422
  3.657   6.7980
  3.655   6.7053
  3.652   6.7568
  3.649   6.7671
  3.647   6.7465
  3.644   6.6435
  3.642   6.4890
  3.639   6.3860
  3.637   6.3139
  3.634   6.2109
  3.632   6.2212
  3.629   6.1491
  3.626   6.0564
  3.624   5.9946
  3.621   5.8710
  3.619   5.7577
  3.616   5.8092
  3.614   5.7577
  3.611   5.6753
  3.609   5.6444
  3.606   5.6032
  3.604   5.5311
  3.601   5.4590
  3.599   5.3354
  3.596   5.2736
  3.594   5.2324
  3.591   5.1912
  3.589   5.1294
