Name:  Pale brown dry silty clay loam
Type:  Soils
Class:  Inceptisol
Subclass:  Ustocrept
Particle Size:  see additional information
Sample No.:  82P2671
Owner:  JHU
Wavelength range:  All
Origin:  Diar Alla Experiment Station.  Jordon, via USDA Soil Conservation 
service
Description:  Parent material is irrigated cropland.  Pale brown dry silty clay loam 
(fine, illitic calcareous hyperthermic fluventic).




Measurement:  Directional (10 degree) hemispherical reflectance
First Column:  X
Second Column:  Y
X Units:  Wavelength (micrometers)
Y Units:  Reflectance (percent)
First X Value:  14.0112
Last X Value:  0.4000
Number of X Values:  2844
Additional information:  82P2671a.txt

14.94	1.5522
14.94	1.5522
14.897	1.5439
14.854	1.5493
14.812	1.5649
14.77	1.5857
14.728	1.6064
14.686	1.6243
14.645	1.637
14.603	1.6443
14.562	1.6445
14.521	1.6343
14.481	1.6125
14.441	1.5813
14.4	1.5466
14.361	1.5159
14.321	1.4956
14.281	1.4897
14.242	1.4951
14.203	1.5029
14.164	1.5029
14.126	1.489
14.087	1.4604
14.049	1.4248
14.011	1.3953
13.973	1.3872
13.936	1.4104
13.899	1.4646
13.861	1.5405
13.824	1.6204
13.788	1.6863
13.751	1.7258
13.715	1.7373
13.679	1.7288
13.643	1.7131
13.607	1.7031
13.571	1.7051
13.536	1.7185
13.5	1.7371
13.465	1.7551
13.43	1.7683
13.396	1.7766
13.361	1.7837
13.327	1.7925
13.293	1.8042
13.259	1.8193
13.225	1.8376
13.191	1.8581
13.158	1.8799
13.124	1.9028
13.091	1.9246
13.058	1.9409
13.026	1.9497
12.993	1.9507
12.96	1.9492
12.928	1.9504
12.896	1.9614
12.864	1.9849
12.832	2.0166
12.8	2.0466
12.769	2.0642
12.737	2.0618
12.706	2.0386
12.675	1.9998
12.644	1.956
12.614	1.9172
12.583	1.8884
12.552	1.8682
12.522	1.8528
12.492	1.8357
12.462	1.8127
12.432	1.7832
12.402	1.7524
12.373	1.7263
12.343	1.7104
12.314	1.7095
12.285	1.7239
12.256	1.751
12.227	1.7849
12.198	1.8213
12.169	1.856
12.141	1.887
12.113	1.9148
12.084	1.9438
12.056	1.979
12.028	2.0229
12	2.0759
11.973	2.134
11.945	2.1894
11.918	2.2319
11.89	2.2556
11.863	2.2615
11.836	2.2566
11.809	2.2522
11.782	2.26
11.755	2.2869
11.729	2.3325
11.702	2.3889
11.676	2.4482
11.65	2.5039
11.624	2.553
11.598	2.5957
11.572	2.633
11.546	2.6636
11.52	2.6802
11.495	2.676
11.469	2.6457
11.444	2.5918
11.419	2.5232
11.394	2.456
11.369	2.4058
11.344	2.3823
11.319	2.386
11.294	2.4075
11.27	2.4333
11.245	2.4502
11.221	2.4487
11.197	2.4282
11.173	2.3928
11.149	2.3506
11.125	2.3083
11.101	2.2698
11.077	2.2363
11.054	2.206
11.03	2.1782
11.007	2.1538
10.983	2.1365
10.96	2.1304
10.937	2.1389
10.914	2.1594
10.891	2.1865
10.868	2.2112
10.846	2.2239
10.823	2.2195
10.8	2.1995
10.778	2.1699
10.755	2.1401
10.733	2.1182
10.711	2.1099
10.689	2.116
10.667	2.1328
10.645	2.1558
10.623	2.1807
10.602	2.2046
10.58	2.2261
10.558	2.2463
10.537	2.2666
10.516	2.2891
10.494	2.3159
10.473	2.3489
10.452	2.3887
10.431	2.4331
10.41	2.4797
10.389	2.5247
10.368	2.564
10.348	2.5952
10.327	2.6174
10.306	2.6299
10.286	2.6335
10.266	2.6309
10.245	2.6272
10.225	2.6299
10.205	2.647
10.185	2.687
10.165	2.7517
10.145	2.8369
10.125	2.9324
10.106	3.0268
10.086	3.1101
10.066	3.1755
10.047	3.2234
10.027	3.2593
10.008	3.2898
9.9887	3.3215
9.9695	3.3579
9.9504	3.3999
9.9313	3.4451
9.9123	3.488
9.8934	3.5246
9.8746	3.5537
9.8558	3.5776
9.8371	3.6018
9.8185	3.6326
9.7999	3.6755
9.7814	3.7331
9.763	3.802
9.7447	3.877
9.7264	3.951
9.7082	4.02
9.69	4.081
9.6719	4.13
9.6539	4.167
9.636	4.194
9.6181	4.208
9.6003	4.212
9.5825	4.208
9.5649	4.197
9.5472	4.182
9.5297	4.166
9.5122	4.153
9.4948	4.148
9.4774	4.154
9.4601	4.175
9.4429	4.21
9.4257	4.252
9.4086	4.293
9.3916	4.323
9.3746	4.333
9.3577	4.319
9.3408	4.281
9.324	4.225
9.3073	4.159
9.2906	4.09
9.274	4.023
9.2574	3.966
9.2409	3.919
9.2245	3.883
9.2081	3.852
9.1918	3.825
9.1755	3.7988
9.1593	3.7705
9.1431	3.7388
9.127	3.7038
9.111	3.6653
9.095	3.6218
9.0791	3.572
9.0632	3.5185
9.0474	3.4675
9.0316	3.426
9.0159	3.4023
9.0003	3.4028
8.9847	3.4309
8.9691	3.4829
8.9536	3.5508
8.9382	3.623
8.9228	3.6887
8.9075	3.7385
8.8922	3.7688
8.877	3.7829
8.8618	3.7903
8.8467	3.7993
8.8316	3.818
8.8166	3.849
8.8016	3.889
8.7867	3.933
8.7718	3.971
8.757	3.999
8.7422	4.014
8.7275	4.014
8.7129	3.998
8.6982	3.969
8.6837	3.928
8.6692	3.886
8.6547	3.852
8.6403	3.843
8.6259	3.87
8.6116	3.935
8.5973	4.037
8.583	4.163
8.5688	4.298
8.5547	4.427
8.5406	4.54
8.5266	4.635
8.5126	4.712
8.4986	4.776
8.4847	4.835
8.4708	4.894
8.457	4.958
8.4432	5.032
8.4295	5.118
8.4158	5.22
8.4022	5.336
8.3886	5.465
8.375	5.604
8.3615	5.749
8.3481	5.898
8.3347	6.049
8.3213	6.202
8.3079	6.36
8.2946	6.524
8.2814	6.694
8.2682	6.867
8.255	7.037
8.2419	7.196
8.2288	7.335
8.2158	7.45
8.2028	7.535
8.1898	7.589
8.1769	7.608
8.164	7.594
8.1512	7.549
8.1384	7.477
8.1256	7.39
8.1129	7.295
8.1002	7.203
8.0876	7.122
8.075	7.054
8.0624	6.998
8.0499	6.954
8.0374	6.916
8.025	6.883
8.0126	6.854
8.0002	6.828
7.9879	6.803
7.9756	6.777
7.9634	6.747
7.9512	6.712
7.939	6.672
7.9268	6.631
7.9147	6.594
7.9027	6.563
7.8906	6.54
7.8786	6.523
7.8667	6.51
7.8548	6.497
7.8429	6.486
7.831	6.476
7.8192	6.47
7.8075	6.472
7.7957	6.482
7.784	6.499
7.7723	6.522
7.7607	6.547
7.7491	6.57
7.7375	6.586
7.726	6.593
7.7145	6.59
7.7031	6.575
7.6916	6.552
7.6802	6.519
7.6689	6.479
7.6575	6.433
7.6462	6.381
7.635	6.326
7.6238	6.271
7.6126	6.22
7.6014	6.176
7.5903	6.142
7.5792	6.115
7.5681	6.095
7.5571	6.077
7.5461	6.06
7.5351	6.041
7.5242	6.019
7.5133	5.995
7.5024	5.967
7.4916	5.935
7.4807	5.898
7.47	5.856
7.4592	5.809
7.4485	5.758
7.4378	5.704
7.4272	5.646
7.4165	5.584
7.4059	5.514
7.3954	5.433
7.3848	5.337
7.3743	5.224
7.3639	5.095
7.3534	4.951
7.343	4.797
7.3326	4.637
7.3222	4.477
7.3119	4.322
7.3016	4.175
7.2914	4.04
7.2811	3.915
7.2709	3.7993
7.2607	3.6885
7.2506	3.5798
7.2404	3.4719
7.2303	3.3657
7.2203	3.2637
7.2102	3.1684
7.2002	3.0825
7.1902	3.0083
7.1803	2.9482
7.1703	2.9058
7.1604	2.8862
7.1506	2.894
7.1407	2.9282
7.1309	2.9824
7.1211	3.0452
7.1113	3.1011
7.1016	3.1367
7.0919	3.144
7.0822	3.1238
7.0725	3.0835
7.0629	3.0347
7.0533	2.9888
7.0437	2.9517
7.0341	2.9248
7.0246	2.9028
7.0151	2.8784
7.0056	2.8452
6.9962	2.8
6.9867	2.7458
6.9773	2.6887
6.9679	2.6372
6.9586	2.6001
6.9493	2.5815
6.94	2.5801
6.9307	2.5906
6.9214	2.6035
6.9122	2.6086
6.903	2.6003
6.8938	2.5781
6.8847	2.5478
6.8755	2.5193
6.8664	2.5017
6.8573	2.5007
6.8483	2.5146
6.8393	2.5349
6.8302	2.5508
6.8213	2.5554
6.8123	2.5478
6.8034	2.5334
6.7944	2.5225
6.7855	2.5254
6.7767	2.5476
6.7678	2.5862
6.759	2.633
6.7502	2.6772
6.7414	2.709
6.7327	2.7246
6.7239	2.727
6.7152	2.7239
6.7065	2.7251
6.6979	2.7363
6.6892	2.7571
6.6806	2.7834
6.672	2.8103
6.6634	2.835
6.6549	2.8618
6.6464	2.8975
6.6378	2.9495
6.6294	3.0181
6.6209	3.0967
6.6124	3.1736
6.604	3.2402
6.5956	3.2932
6.5872	3.3401
6.5789	3.3938
6.5705	3.4663
6.5622	3.5613
6.5539	3.6697
6.5456	3.7729
6.5374	3.848
6.5292	3.879
6.5209	3.865
6.5128	3.823
6.5046	3.7837
6.4964	3.781
6.4883	3.84
6.4802	3.963
6.4721	4.129
6.464	4.298
6.456	4.427
6.448	4.485
6.4399	4.466
6.432	4.39
6.424	4.29
6.416	4.198
6.4081	4.134
6.4002	4.095
6.3923	4.062
6.3844	4.011
6.3766	3.927
6.3687	3.809
6.3609	3.6667
6.3531	3.5183
6.3454	3.3791
6.3376	3.2561
6.3299	3.1477
6.3221	3.0488
6.3144	2.9543
6.3068	2.8625
6.2991	2.7749
6.2914	2.6926
6.2838	2.6184
6.2762	2.5508
6.2686	2.4878
6.2611	2.4243
6.2535	2.3579
6.246	2.2873
6.2385	2.2134
6.231	2.1367
6.2235	2.0588
6.216	1.9824
6.2086	1.908
6.2011	1.8364
6.1937	1.7688
6.1863	1.7082
6.179	1.6567
6.1716	1.6147
6.1643	1.5813
6.157	1.553
6.1496	1.5247
6.1424	1.4932
6.1351	1.458
6.1278	1.4228
6.1206	1.3933
6.1134	1.3733
6.1062	1.3638
6.099	1.3628
6.0918	1.3635
6.0847	1.3608
6.0776	1.3538
6.0704	1.3464
6.0633	1.3455
6.0563	1.3567
6.0492	1.3835
6.0421	1.4231
6.0351	1.4668
6.0281	1.5054
6.0211	1.5325
6.0141	1.5474
6.0071	1.554
6.0002	1.5588
5.9932	1.5691
5.9863	1.5884
5.9794	1.614
5.9725	1.6406
5.9657	1.665
5.9588	1.6875
5.952	1.7124
5.9451	1.7473
5.9383	1.7978
5.9315	1.8645
5.9247	1.939
5.918	2.0098
5.9112	2.0676
5.9045	2.1096
5.8978	2.1438
5.8911	2.1846
5.8844	2.2461
5.8777	2.3367
5.8711	2.4524
5.8644	2.5791
5.8578	2.6985
5.8512	2.7964
5.8446	2.8691
5.838	2.9253
5.8314	2.9797
5.8249	3.0483
5.8184	3.1387
5.8118	3.2473
5.8053	3.3594
5.7988	3.4556
5.7923	3.5237
5.7859	3.5605
5.7794	3.5749
5.773	3.5837
5.7666	3.6052
5.7602	3.6511
5.7538	3.7219
5.7474	3.81
5.741	3.903
5.7347	3.991
5.7283	4.067
5.722	4.133
5.7157	4.193
5.7094	4.253
5.7031	4.316
5.6969	4.381
5.6906	4.443
5.6844	4.494
5.6782	4.526
5.6719	4.537
5.6657	4.526
5.6596	4.498
5.6534	4.464
5.6472	4.43
5.6411	4.404
5.6349	4.381
5.6288	4.351
5.6227	4.298
5.6166	4.203
5.6106	4.051
5.6045	3.839
5.5984	3.5759
5.5924	3.2842
5.5864	2.9951
5.5804	2.7441
5.5744	2.5652
5.5684	2.4849
5.5624	2.5166
5.5564	2.6597
5.5505	2.8984
5.5445	3.2053
5.5386	3.5444
5.5327	3.881
5.5268	4.188
5.5209	4.449
5.5151	4.658
5.5092	4.822
5.5033	4.953
5.4975	5.061
5.4917	5.16
5.4859	5.258
5.4801	5.366
5.4743	5.486
5.4685	5.619
5.4628	5.759
5.457	5.894
5.4513	6.01
5.4455	6.095
5.4398	6.148
5.4341	6.173
5.4284	6.179
5.4228	6.178
5.4171	6.177
5.4114	6.174
5.4058	6.164
5.4002	6.139
5.3945	6.095
5.3889	6.031
5.3833	5.953
5.3778	5.867
5.3722	5.785
5.3666	5.716
5.3611	5.667
5.3555	5.645
5.35	5.652
5.3445	5.687
5.339	5.743
5.3335	5.809
5.328	5.876
5.3225	5.939
5.3171	5.993
5.3116	6.042
5.3062	6.09
5.3008	6.143
5.2954	6.206
5.29	6.283
5.2846	6.374
5.2792	6.478
5.2738	6.593
5.2684	6.716
5.2631	6.846
5.2578	6.981
5.2524	7.123
5.2471	7.27
5.2418	7.419
5.2365	7.566
5.2312	7.704
5.226	7.831
5.2207	7.943
5.2154	8.043
5.2102	8.135
5.205	8.222
5.1998	8.304
5.1945	8.382
5.1893	8.452
5.1842	8.509
5.179	8.551
5.1738	8.576
5.1686	8.588
5.1635	8.592
5.1584	8.595
5.1532	8.605
5.1481	8.625
5.143	8.658
5.1379	8.698
5.1328	8.738
5.1277	8.772
5.1227	8.794
5.1176	8.805
5.1126	8.807
5.1075	8.804
5.1025	8.802
5.0975	8.805
5.0925	8.813
5.0875	8.825
5.0825	8.84
5.0775	8.858
5.0726	8.877
5.0676	8.899
5.0627	8.925
5.0577	8.953
5.0528	8.982
5.0479	9.008
5.043	9.028
5.038	9.04
5.0332	9.046
5.0283	9.05
5.0234	9.058
5.0185	9.075
5.0137	9.103
5.0088	9.143
5.004	9.193
4.9992	9.252
4.9944	9.321
4.9896	9.4
4.9848	9.492
4.98	9.598
4.9752	9.717
4.9704	9.845
4.9657	9.98
4.9609	10.112
4.9562	10.237
4.9514	10.349
4.9467	10.446
4.942	10.532
4.9373	10.61
4.9326	10.688
4.9279	10.774
4.9232	10.877
4.9186	11
4.9139	11.145
4.9092	11.31
4.9046	11.49
4.9	11.682
4.8953	11.876
4.8907	12.067
4.8861	12.246
4.8815	12.408
4.8769	12.549
4.8723	12.667
4.8678	12.765
4.8632	12.848
4.8586	12.922
4.8541	12.991
4.8495	13.058
4.845	13.124
4.8405	13.188
4.836	13.249
4.8315	13.305
4.827	13.356
4.8225	13.402
4.818	13.443
4.8135	13.482
4.809	13.52
4.8046	13.56
4.8001	13.603
4.7957	13.647
4.7913	13.691
4.7868	13.733
4.7824	13.77
4.778	13.8
4.7736	13.824
4.7692	13.843
4.7648	13.857
4.7605	13.869
4.7561	13.88
4.7517	13.89
4.7474	13.9
4.7431	13.907
4.7387	13.91
4.7344	13.905
4.7301	13.889
4.7258	13.859
4.7215	13.811
4.7172	13.745
4.7129	13.66
4.7086	13.561
4.7043	13.456
4.7	13.352
4.6958	13.257
4.6915	13.18
4.6873	13.121
4.6831	13.084
4.6788	13.066
4.6746	13.069
4.6704	13.092
4.6662	13.136
4.662	13.202
4.6578	13.285
4.6536	13.385
4.6495	13.495
4.6453	13.613
4.6411	13.733
4.637	13.854
4.6328	13.971
4.6287	14.082
4.6246	14.185
4.6205	14.279
4.6163	14.365
4.6122	14.442
4.6081	14.513
4.604	14.579
4.6	14.639
4.5959	14.696
4.5918	14.75
4.5877	14.802
4.5837	14.852
4.5796	14.9
4.5756	14.943
4.5716	14.981
4.5675	15.015
4.5635	15.043
4.5595	15.067
4.5555	15.087
4.5515	15.104
4.5475	15.117
4.5435	15.125
4.5395	15.129
4.5356	15.131
4.5316	15.133
4.5276	15.135
4.5237	15.136
4.5197	15.133
4.5158	15.122
4.5119	15.102
4.508	15.078
4.504	15.055
4.5001	15.039
4.4962	15.038
4.4923	15.052
4.4884	15.079
4.4846	15.115
4.4807	15.155
4.4768	15.196
4.473	15.238
4.4691	15.281
4.4652	15.327
4.4614	15.376
4.4576	15.427
4.4537	15.478
4.4499	15.529
4.4461	15.581
4.4423	15.634
4.4385	15.691
4.4347	15.754
4.4309	15.822
4.4271	15.894
4.4233	15.969
4.4196	16.043
4.4158	16.116
4.412	16.186
4.4083	16.253
4.4045	16.315
4.4008	16.375
4.3971	16.433
4.3934	16.49
4.3896	16.55
4.3859	16.611
4.3822	16.674
4.3785	16.738
4.3748	16.801
4.3711	16.864
4.3674	16.924
4.3638	16.98
4.3601	17.032
4.3564	17.077
4.3528	17.117
4.3491	17.15
4.3455	17.179
4.3418	17.203
4.3382	17.224
4.3346	17.24
4.331	17.253
4.3273	17.263
4.3237	17.27
4.3201	17.271
4.3165	17.268
4.3129	17.26
4.3094	17.247
4.3058	17.233
4.3022	17.217
4.2986	17.199
4.2951	17.172
4.2915	17.132
4.288	17.075
4.2844	17.005
4.2809	16.933
4.2774	16.879
4.2738	16.865
4.2703	16.904
4.2668	17
4.2633	17.138
4.2598	17.292
4.2563	17.434
4.2528	17.542
4.2493	17.607
4.2458	17.636
4.2424	17.645
4.2389	17.653
4.2354	17.677
4.232	17.723
4.2285	17.795
4.2251	17.888
4.2216	17.997
4.2182	18.114
4.2148	18.234
4.2113	18.35
4.2079	18.456
4.2045	18.55
4.2011	18.629
4.1977	18.694
4.1943	18.746
4.1909	18.787
4.1875	18.821
4.1841	18.848
4.1808	18.87
4.1774	18.887
4.174	18.901
4.1707	18.914
4.1673	18.927
4.164	18.942
4.1606	18.956
4.1573	18.969
4.154	18.979
4.1506	18.986
4.1473	18.99
4.144	18.992
4.1407	18.995
4.1374	18.999
4.1341	19.001
4.1308	19.001
4.1275	18.994
4.1242	18.981
4.1209	18.961
4.1177	18.938
4.1144	18.912
4.1111	18.886
4.1079	18.858
4.1046	18.827
4.1014	18.793
4.0981	18.755
4.0949	18.714
4.0917	18.669
4.0884	18.619
4.0852	18.562
4.082	18.49
4.0788	18.402
4.0756	18.293
4.0724	18.166
4.0692	18.023
4.066	17.867
4.0628	17.7
4.0596	17.517
4.0565	17.312
4.0533	17.075
4.0501	16.797
4.047	16.471
4.0438	16.094
4.0406	15.669
4.0375	15.203
4.0344	14.706
4.0312	14.189
4.0281	13.664
4.025	13.139
4.0218	12.62
4.0187	12.105
4.0156	11.594
4.0125	11.08
4.0094	10.56
4.0063	10.033
4.0032	9.507
4.0001	8.99
3.997	8.497
3.994	8.047
3.9909	7.654
3.9878	7.33
3.9847	7.08
3.9817	6.902
3.9786	6.791
3.9756	6.737
3.9725	6.734
3.9695	6.775
3.9665	6.862
3.9634	6.995
3.9604	7.178
3.9574	7.416
3.9544	7.711
3.9513	8.06
3.9483	8.453
3.9453	8.872
3.9423	9.291
3.9393	9.681
3.9363	10.02
3.9333	10.295
3.9304	10.508
3.9274	10.675
3.9244	10.813
3.9214	10.943
3.9185	11.074
3.9155	11.21
3.9126	11.345
3.9096	11.471
3.9067	11.585
3.9037	11.681
3.9008	11.761
3.8979	11.827
3.8949	11.882
3.892	11.929
3.8891	11.973
3.8862	12.015
3.8833	12.058
3.8804	12.1
3.8775	12.142
3.8746	12.182
3.8717	12.22
3.8688	12.258
3.8659	12.298
3.863	12.342
3.8601	12.393
3.8573	12.45
3.8544	12.516
3.8515	12.59
3.8487	12.673
3.8458	12.769
3.843	12.881
3.8401	13.01
3.8373	13.158
3.8344	13.323
3.8316	13.501
3.8288	13.686
3.8259	13.872
3.8231	14.056
3.8203	14.236
3.8175	14.413
3.8147	14.593
3.8119	14.782
3.8091	14.985
3.8063	15.208
3.8035	15.448
3.8007	15.702
3.7979	15.959
3.7951	16.21
3.7924	16.443
3.7896	16.65
3.7868	16.826
3.7841	16.969
3.7813	17.08
3.7785	17.164
3.7758	17.227
3.773	17.274
3.7703	17.311
3.7676	17.339
3.7648	17.358
3.7621	17.366
3.7594	17.362
3.7566	17.348
3.7539	17.327
3.7512	17.302
3.7485	17.278
3.7458	17.254
3.7431	17.23
3.7404	17.202
3.7377	17.171
3.735	17.138
3.7323	17.103
3.7296	17.068
3.7269	17.032
3.7242	16.994
3.7216	16.951
3.7189	16.899
3.7162	16.84
3.7136	16.776
3.7109	16.712
3.7083	16.651
3.7056	16.597
3.703	16.548
3.7003	16.5
3.6977	16.448
3.695	16.388
3.6924	16.322
3.6898	16.253
3.6872	16.186
3.6845	16.128
3.6819	16.079
3.6793	16.04
3.6767	16.004
3.6741	15.966
3.6715	15.921
3.6689	15.866
3.6663	15.8
3.6637	15.724
3.6611	15.64
3.6585	15.552
3.656	15.464
3.6534	15.379
3.6508	15.299
3.6482	15.225
3.6457	15.157
3.6431	15.092
3.6406	15.028
3.638	14.962
3.6355	14.891
3.6329	14.814
3.6304	14.733
3.6278	14.649
3.6253	14.565
3.6227	14.483
3.6202	14.403
3.6177	14.328
3.6152	14.257
3.6127	14.187
3.6101	14.117
3.6076	14.046
3.6051	13.973
3.6026	13.897
3.6001	13.819
3.5976	13.739
3.5951	13.657
3.5926	13.572
3.5901	13.48
3.5876	13.381
3.5852	13.273
3.5827	13.157
3.5802	13.037
3.5777	12.917
3.5753	12.802
3.5728	12.697
3.5704	12.603
3.5679	12.519
3.5654	12.44
3.563	12.36
3.5605	12.274
3.5581	12.179
3.5557	12.076
3.5532	11.967
3.5508	11.854
3.5484	11.738
3.5459	11.621
3.5435	11.501
3.5411	11.376
3.5387	11.241
3.5363	11.095
3.5338	10.933
3.5314	10.751
3.529	10.547
3.5266	10.321
3.5242	10.079
3.5218	9.826
3.5195	9.574
3.5171	9.33
3.5147	9.102
3.5123	8.894
3.5099	8.705
3.5075	8.536
3.5052	8.381
3.5028	8.238
3.5004	8.1
3.4981	7.968
3.4957	7.838
3.4934	7.711
3.491	7.587
3.4887	7.467
3.4863	7.354
3.484	7.251
3.4816	7.16
3.4793	7.088
3.477	7.043
3.4746	7.03
3.4723	7.053
3.47	7.11
3.4677	7.195
3.4653	7.294
3.463	7.394
3.4607	7.482
3.4584	7.551
3.4561	7.595
3.4538	7.614
3.4515	7.608
3.4492	7.583
3.4469	7.541
3.4446	7.489
3.4423	7.434
3.44	7.382
3.4378	7.34
3.4355	7.306
3.4332	7.279
3.4309	7.255
3.4287	7.226
3.4264	7.191
3.4241	7.148
3.4219	7.1
3.4196	7.047
3.4174	6.994
3.4151	6.942
3.4129	6.893
3.4106	6.847
3.4084	6.805
3.4061	6.766
3.4039	6.733
3.4017	6.704
3.3994	6.682
3.3972	6.667
3.395	6.656
3.3928	6.646
3.3906	6.632
3.3883	6.61
3.3861	6.578
3.3839	6.537
3.3817	6.492
3.3795	6.447
3.3773	6.404
3.3751	6.364
3.3729	6.328
3.3707	6.294
3.3685	6.257
3.3663	6.216
3.3641	6.167
3.362	6.107
3.3598	6.038
3.3576	5.961
3.3554	5.886
3.3533	5.821
3.3511	5.777
3.3489	5.759
3.3468	5.772
3.3446	5.81
3.3425	5.868
3.3403	5.935
3.3382	6.002
3.336	6.06
3.3339	6.106
3.3317	6.135
3.3296	6.146
3.3274	6.141
3.3253	6.122
3.3232	6.091
3.321	6.054
3.3189	6.013
3.3168	5.971
3.3147	5.93
3.3126	5.891
3.3104	5.855
3.3083	5.821
3.3062	5.789
3.3041	5.76
3.302	5.732
3.2999	5.706
3.2978	5.677
3.2957	5.645
3.2936	5.608
3.2915	5.567
3.2894	5.523
3.2874	5.479
3.2853	5.438
3.2832	5.399
3.2811	5.362
3.279	5.324
3.277	5.285
3.2749	5.241
3.2728	5.195
3.2708	5.148
3.2687	5.102
3.2666	5.06
3.2646	5.021
3.2625	4.986
3.2605	4.951
3.2584	4.915
3.2564	4.877
3.2543	4.836
3.2523	4.794
3.2503	4.754
3.2482	4.717
3.2462	4.682
3.2442	4.645
3.2421	4.604
3.2401	4.559
3.2381	4.513
3.2361	4.471
3.234	4.438
3.232	4.417
3.23	4.404
3.228	4.393
3.226	4.376
3.224	4.348
3.222	4.307
3.22	4.259
3.218	4.21
3.216	4.165
3.214	4.126
3.212	4.092
3.21	4.061
3.208	4.03
3.206	3.999
3.204	3.967
3.2021	3.936
3.2001	3.906
3.1981	3.876
3.1961	3.846
3.1942	3.816
3.1922	3.7876
3.1902	3.7598
3.1883	3.7327
3.1863	3.7065
3.1844	3.6811
3.1824	3.6565
3.1805	3.6343
3.1785	3.6142
3.1766	3.5952
3.1746	3.573
3.1727	3.5444
3.1707	3.508
3.1688	3.4646
3.1669	3.418
3.1649	3.3733
3.163	3.3352
3.1611	3.3064
3.1591	3.2856
3.1572	3.2698
3.1553	3.2551
3.1534	3.2385
3.1515	3.2175
3.1495	3.1924
3.1476	3.1658
3.1457	3.1401
3.1438	3.1179
3.1419	3.0996
3.14	3.084
3.1381	3.0681
3.1362	3.0503
3.1343	3.0303
3.1324	3.0098
3.1305	2.9907
3.1286	2.9753
3.1268	2.9617
3.1249	2.9463
3.123	2.9255
3.1211	2.8965
3.1192	2.8603
3.1174	2.8208
3.1155	2.7827
3.1136	2.75
3.1117	2.7244
3.1099	2.7056
3.108	2.6931
3.1061	2.6853
3.1043	2.6797
3.1024	2.6755
3.1006	2.6699
3.0987	2.6609
3.0969	2.6467
3.095	2.6284
3.0932	2.6074
3.0913	2.5872
3.0895	2.5708
3.0876	2.5596
3.0858	2.5527
3.084	2.5486
3.0821	2.5456
3.0803	2.5425
3.0785	2.5395
3.0766	2.5378
