Name:  Brown to dark brown silt loam
Type:  Soils
Class:  Entisol
Subclass:  Ustifluvent
Particle Size:  see additional information
Sample No.:  82P2230
Owner:  JHU
Wavelength range:  All
Origin:  Near Bait Radam, Yemen via USDA Soil Conservation service.

Description:  Parent material: alluvium.  Brown to dark brown silt 
loam (fine-loamy, mixed-calcareous, isothermic typic ustifluvent).




Measurement:  Directional (10 degree) hemispherical reflectance
First Column:  X
Second Column:  Y
X Units:  Wavelength (micrometers)
Y Units:  Reflectance (percent)
First X Value:  14.0112
Last X Value:  0.4000
Number of X Values:  2844
Additional information:  82P2230a.txt
	
14.983	1.6128
14.94	1.6038
14.897	1.6042
14.854	1.613
14.812	1.6267
14.77	1.6426
14.728	1.6597
14.686	1.6763
14.645	1.6907
14.603	1.6992
14.562	1.697
14.521	1.6785
14.481	1.6416
14.441	1.5879
14.4	1.5247
14.361	1.4634
14.321	1.4167
14.281	1.3948
14.242	1.4016
14.203	1.4343
14.164	1.4832
14.126	1.5366
14.087	1.5835
14.049	1.6165
14.011	1.6348
13.973	1.6406
13.936	1.6396
13.899	1.636
13.861	1.6318
13.824	1.6277
13.788	1.6226
13.751	1.6165
13.715	1.6103
13.679	1.606
13.643	1.606
13.607	1.6106
13.571	1.6194
13.536	1.6304
13.5	1.6406
13.465	1.6489
13.43	1.6553
13.396	1.6616
13.361	1.6697
13.327	1.6814
13.293	1.6956
13.259	1.7095
13.225	1.7183
13.191	1.7183
13.158	1.708
13.124	1.6902
13.091	1.6709
13.058	1.658
13.026	1.6567
12.993	1.6697
12.96	1.6931
12.928	1.7205
12.896	1.7436
12.864	1.7563
12.832	1.7576
12.8	1.75
12.769	1.741
12.737	1.7373
12.706	1.7436
12.675	1.7605
12.644	1.7834
12.614	1.8052
12.583	1.8174
12.552	1.814
12.522	1.7935
12.492	1.7573
12.462	1.7114
12.432	1.6631
12.402	1.6199
12.373	1.5872
12.343	1.5686
12.314	1.5662
12.285	1.5786
12.256	1.6038
12.227	1.6387
12.198	1.6799
12.169	1.7241
12.141	1.77
12.113	1.8166
12.084	1.8647
12.056	1.9133
12.028	1.9612
12	2.0054
11.973	2.043
11.945	2.071
11.918	2.0891
11.89	2.0979
11.863	2.1018
11.836	2.1047
11.809	2.1106
11.782	2.1226
11.755	2.1411
11.729	2.1645
11.702	2.1907
11.676	2.2168
11.65	2.2402
11.624	2.259
11.598	2.2717
11.572	2.2788
11.546	2.2817
11.52	2.2832
11.495	2.2856
11.469	2.2927
11.444	2.3052
11.419	2.3223
11.394	2.343
11.369	2.364
11.344	2.3831
11.319	2.3999
11.294	2.4148
11.27	2.4287
11.245	2.4434
11.221	2.4592
11.197	2.4763
11.173	2.4949
11.149	2.5139
11.125	2.5342
11.101	2.5544
11.077	2.574
11.054	2.5903
11.03	2.5998
11.007	2.5994
10.983	2.5867
10.96	2.5618
10.937	2.5283
10.914	2.4917
10.891	2.4597
10.868	2.439
10.846	2.4353
10.823	2.4512
10.8	2.4846
10.778	2.5305
10.755	2.581
10.733	2.6277
10.711	2.6636
10.689	2.6853
10.667	2.6941
10.645	2.6951
10.623	2.6955
10.602	2.7031
10.58	2.7234
10.558	2.7588
10.537	2.8083
10.516	2.8682
10.494	2.9326
10.473	2.9968
10.452	3.0566
10.431	3.1101
10.41	3.1577
10.389	3.2009
10.368	3.2432
10.348	3.2873
10.327	3.3362
10.306	3.3921
10.286	3.4578
10.266	3.5342
10.245	3.6221
10.225	3.7195
10.205	3.824
10.185	3.9326
10.165	4.042
10.145	4.1506
10.125	4.258
10.106	4.3657
10.086	4.4744
10.066	4.5854
10.047	4.698
10.027	4.8098
10.008	4.9187
9.9887	5.022
9.9695	5.1179
9.9504	5.2063
9.9313	5.2881
9.9123	5.3655
9.8934	5.4407
9.8746	5.5151
9.8558	5.5911
9.8371	5.6699
9.8185	5.7532
9.7999	5.843
9.7814	5.9431
9.763	6.0556
9.7447	6.1821
9.7264	6.321
9.7082	6.4687
9.69	6.618
9.6719	6.763
9.6539	6.898
9.636	7.021
9.6181	7.13
9.6003	7.229
9.5825	7.317
9.5649	7.395
9.5472	7.459
9.5297	7.506
9.5122	7.531
9.4948	7.53
9.4774	7.503
9.4601	7.453
9.4429	7.38
9.4257	7.289
9.4086	7.182
9.3916	7.062
9.3746	6.929
9.3577	6.787
9.3408	6.636
9.324	6.4817
9.3073	6.3269
9.2906	6.1758
9.274	6.032
9.2574	5.897
9.2409	5.7707
9.2245	5.6526
9.2081	5.5412
9.1918	5.4355
9.1755	5.3352
9.1593	5.2407
9.1431	5.1526
9.127	5.0713
9.111	4.9961
9.095	4.9267
9.0791	4.8616
9.0632	4.8
9.0474	4.7432
9.0316	4.6926
9.0159	4.6523
9.0003	4.6262
8.9847	4.6174
8.9691	4.6272
8.9536	4.6543
8.9382	4.6943
8.9228	4.7402
8.9075	4.7849
8.8922	4.821
8.877	4.8432
8.8618	4.8486
8.8467	4.8374
8.8316	4.8122
8.8166	4.7773
8.8016	4.738
8.7867	4.6985
8.7718	4.6604
8.757	4.6221
8.7423	4.5791
8.7275	4.5239
8.7129	4.4504
8.6982	4.3557
8.6837	4.2446
8.6692	4.1274
8.6547	4.022
8.6403	3.9448
8.6259	3.9089
8.6116	3.9187
8.5973	3.9683
8.583	4.0439
8.5688	4.1287
8.5547	4.2053
8.5406	4.2617
8.5266	4.2922
8.5126	4.2978
8.4986	4.2851
8.4847	4.2627
8.4708	4.24
8.457	4.2246
8.4432	4.2217
8.4295	4.2319
8.4158	4.2532
8.4022	4.2825
8.3886	4.3159
8.375	4.3508
8.3615	4.3867
8.3481	4.4233
8.3347	4.4612
8.3213	4.4993
8.3079	4.5373
8.2946	4.5735
8.2814	4.6067
8.2682	4.6357
8.255	4.6594
8.2419	4.6763
8.2288	4.6831
8.2158	4.6763
8.2028	4.6511
8.1898	4.6035
8.1769	4.5322
8.164	4.4382
8.1512	4.3257
8.1384	4.1997
8.1256	4.0664
8.1129	3.9302
8.1002	3.7949
8.0876	3.6628
8.075	3.5356
8.0624	3.4136
8.0499	3.2981
8.0374	3.1894
8.025	3.0879
8.0126	2.9944
8.0002	2.9082
7.9879	2.8291
7.9756	2.7559
7.9634	2.688
7.9512	2.624
7.939	2.5632
7.9268	2.5044
7.9147	2.4477
7.9027	2.3938
7.8906	2.3445
7.8786	2.3013
7.8667	2.2664
7.8548	2.2407
7.8429	2.2246
7.831	2.2168
7.8192	2.2153
7.8075	2.2178
7.7957	2.2214
7.784	2.2239
7.7723	2.2239
7.7607	2.2217
7.7491	2.218
7.7375	2.2143
7.726	2.2112
7.7145	2.2085
7.7031	2.2053
7.6916	2.2007
7.6802	2.1938
7.6689	2.1853
7.6575	2.1768
7.6462	2.1694
7.635	2.166
7.6238	2.1672
7.6126	2.1728
7.6014	2.1811
7.5903	2.1907
7.5792	2.2009
7.5681	2.2107
7.5571	2.2205
7.5461	2.2302
7.5351	2.24
7.5242	2.249
7.5133	2.2561
7.5024	2.2595
7.4916	2.2588
7.4807	2.2546
7.47	2.2488
7.4592	2.2429
7.4485	2.2397
7.4378	2.2395
7.4272	2.2422
7.4165	2.2458
7.4059	2.2485
7.3954	2.249
7.3848	2.2478
7.3743	2.2454
7.3639	2.2439
7.3534	2.2451
7.343	2.2498
7.3326	2.2581
7.3223	2.2685
7.3119	2.2795
7.3016	2.2903
7.2914	2.3008
7.2811	2.3113
7.2709	2.3232
7.2607	2.3376
7.2506	2.3547
7.2404	2.373
7.2303	2.3906
7.2203	2.4043
7.2102	2.4119
7.2002	2.4128
7.1902	2.408
7.1803	2.4001
7.1703	2.3928
7.1604	2.3899
7.1506	2.3931
7.1407	2.404
7.1309	2.4206
7.1211	2.4409
7.1113	2.4619
7.1016	2.4795
7.0919	2.4922
7.0822	2.499
7.0725	2.5005
7.0629	2.4988
7.0533	2.4961
7.0437	2.4946
7.0341	2.4961
7.0246	2.501
7.0151	2.509
7.0056	2.5195
6.9962	2.5317
6.9867	2.5454
6.9773	2.5608
6.9679	2.5791
6.9586	2.6006
6.9493	2.6262
6.94	2.6548
6.9307	2.6843
6.9214	2.7119
6.9122	2.7339
6.903	2.7478
6.8938	2.7534
6.8847	2.7534
6.8755	2.7517
6.8664	2.7534
6.8573	2.7622
6.8483	2.7781
6.8393	2.7996
6.8302	2.8227
6.8213	2.8437
6.8123	2.8608
6.8034	2.876
6.7944	2.8911
6.7855	2.9092
6.7767	2.9316
6.7678	2.9565
6.759	2.9792
6.7502	2.9954
6.7414	3.0015
6.7327	2.998
6.7239	2.9885
6.7152	2.9785
6.7065	2.9729
6.6979	2.9739
6.6892	2.9802
6.6806	2.989
6.672	2.9956
6.6634	2.9976
6.6549	2.9941
6.6464	2.9873
6.6378	2.9795
6.6294	2.9729
6.6209	2.9665
6.6124	2.9597
6.604	2.9504
6.5956	2.938
6.5872	2.9246
6.5789	2.9133
6.5705	2.9082
6.5622	2.9121
6.5539	2.9233
6.5456	2.9387
6.5374	2.9526
6.5292	2.9602
6.5209	2.9604
6.5128	2.956
6.5046	2.9526
6.4964	2.9556
6.4883	2.968
6.4802	2.9875
6.4721	3.0071
6.464	3.0176
6.456	3.0117
6.448	2.9873
6.4399	2.9487
6.432	2.9053
6.424	2.8672
6.416	2.842
6.4081	2.8315
6.4002	2.8313
6.3923	2.8325
6.3844	2.8269
6.3766	2.8091
6.3687	2.7778
6.3609	2.7371
6.3531	2.6921
6.3454	2.6489
6.3376	2.6099
6.3299	2.5754
6.3221	2.5444
6.3144	2.5137
6.3068	2.4805
6.2991	2.4436
6.2914	2.4018
6.2838	2.3555
6.2762	2.3052
6.2686	2.2522
6.2611	2.1982
6.2535	2.1443
6.246	2.0918
6.2385	2.0405
6.231	1.9902
6.2235	1.9402
6.216	1.8899
6.2086	1.8386
6.2011	1.7878
6.1937	1.7395
6.1863	1.696
6.179	1.6587
6.1716	1.6279
6.1643	1.6028
6.157	1.5811
6.1496	1.5601
6.1424	1.5388
6.1351	1.5176
6.1278	1.4978
6.1206	1.4822
6.1134	1.4714
6.1062	1.4663
6.099	1.4648
6.0918	1.4651
6.0847	1.4646
6.0776	1.4626
6.0704	1.4604
6.0633	1.4597
6.0563	1.4626
6.0492	1.4707
6.0421	1.4836
6.0351	1.501
6.0281	1.5207
6.0211	1.542
6.0141	1.5642
6.0071	1.5886
6.0002	1.6169
5.9932	1.6506
5.9863	1.689
5.9794	1.7317
5.9725	1.7751
5.9657	1.8181
5.9588	1.8591
5.952	1.8999
5.9451	1.9436
5.9383	1.9936
5.9315	2.0522
5.9247	2.1194
5.918	2.1931
5.9112	2.271
5.9045	2.3513
5.8978	2.4343
5.8911	2.522
5.8844	2.6162
5.8777	2.717
5.8711	2.8223
5.8644	2.927
5.8578	3.0259
5.8512	3.116
5.8446	3.198
5.838	3.2771
5.8314	3.3594
5.8249	3.4497
5.8184	3.5498
5.8118	3.655
5.8053	3.7571
5.7988	3.8467
5.7923	3.9175
5.7859	3.968
5.7794	4.0034
5.773	4.0332
5.7666	4.0676
5.7602	4.1147
5.7538	4.176
5.7474	4.2495
5.741	4.3288
5.7347	4.4065
5.7283	4.4775
5.722	4.5393
5.7157	4.5925
5.7094	4.6384
5.7031	4.6787
5.6969	4.7134
5.6906	4.7405
5.6844	4.7568
5.6782	4.76
5.6719	4.7488
5.6657	4.7248
5.6596	4.6926
5.6534	4.6582
5.6472	4.6279
5.6411	4.6062
5.6349	4.5945
5.6288	4.5915
5.6227	4.5928
5.6166	4.5935
5.6106	4.5901
5.6045	4.5813
5.5984	4.5688
5.5924	4.5559
5.5864	4.5466
5.5804	4.5449
5.5744	4.5513
5.5684	4.5666
5.5624	4.5896
5.5564	4.6194
5.5505	4.6555
5.5445	4.698
5.5386	4.7466
5.5327	4.8015
5.5268	4.8625
5.5209	4.9277
5.5151	4.9939
5.5092	5.0581
5.5033	5.1164
5.4975	5.167
5.4917	5.2085
5.4859	5.2432
5.4801	5.2742
5.4743	5.3044
5.4685	5.3371
5.4628	5.3721
5.457	5.4065
5.4513	5.4355
5.4455	5.4548
5.4398	5.4614
5.4341	5.4546
5.4284	5.4355
5.4228	5.4075
5.4171	5.3725
5.4114	5.3325
5.4058	5.2866
5.4002	5.2341
5.3945	5.1755
5.3889	5.1123
5.3833	5.0478
5.3778	4.9866
5.3722	4.9333
5.3666	4.8928
5.3611	4.8682
5.3555	4.8599
5.35	4.8674
5.3445	4.8879
5.339	4.9175
5.3335	4.9524
5.328	4.9885
5.3225	5.0244
5.3171	5.0588
5.3116	5.0923
5.3062	5.1267
5.3008	5.164
5.2954	5.2065
5.29	5.2554
5.2846	5.3115
5.2792	5.3757
5.2738	5.4482
5.2684	5.5295
5.2631	5.6196
5.2578	5.7178
5.2524	5.8215
5.2471	5.9282
5.2418	6.0349
5.2365	6.1382
5.2312	6.2366
5.226	6.3291
5.2207	6.416
5.2154	6.4968
5.2102	6.5701
5.205	6.634
5.1998	6.687
5.1945	6.729
5.1893	6.761
5.1842	6.785
5.179	6.804
5.1738	6.821
5.1686	6.839
5.1635	6.855
5.1584	6.871
5.1532	6.887
5.1481	6.904
5.143	6.924
5.1379	6.947
5.1328	6.973
5.1277	7.002
5.1227	7.032
5.1176	7.059
5.1126	7.082
5.1075	7.099
5.1025	7.11
5.0975	7.116
5.0925	7.117
5.0875	7.117
5.0825	7.116
5.0775	7.116
5.0726	7.12
5.0676	7.127
5.0627	7.139
5.0577	7.153
5.0528	7.167
5.0479	7.18
5.043	7.189
5.038	7.194
5.0332	7.195
5.0283	7.191
5.0234	7.188
5.0185	7.188
5.0137	7.195
5.0088	7.214
5.004	7.246
4.9992	7.292
4.9944	7.35
4.9896	7.419
4.9848	7.494
4.98	7.575
4.9752	7.658
4.9704	7.743
4.9657	7.826
4.9609	7.907
4.9562	7.983
4.9514	8.052
4.9467	8.114
4.942	8.171
4.9373	8.224
4.9326	8.279
4.9279	8.339
4.9232	8.408
4.9186	8.487
4.9139	8.579
4.9092	8.682
4.9046	8.793
4.9	8.909
4.8953	9.024
4.8907	9.134
4.8861	9.233
4.8815	9.32
4.8769	9.394
4.8723	9.458
4.8678	9.514
4.8632	9.567
4.8586	9.62
4.8541	9.673
4.8495	9.724
4.845	9.772
4.8405	9.814
4.836	9.848
4.8315	9.875
4.827	9.898
4.8225	9.919
4.818	9.942
4.8135	9.97
4.809	10.001
4.8046	10.035
4.8001	10.068
4.7957	10.101
4.7913	10.132
4.7868	10.162
4.7824	10.191
4.778	10.22
4.7736	10.249
4.7692	10.277
4.7648	10.301
4.7605	10.321
4.7561	10.337
4.7517	10.35
4.7474	10.362
4.7431	10.375
4.7387	10.39
4.7344	10.407
4.7301	10.426
4.7258	10.445
4.7215	10.462
4.7172	10.475
4.7129	10.485
4.7086	10.492
4.7043	10.496
4.7	10.498
4.6958	10.5
4.6915	10.503
4.6873	10.51
4.6831	10.521
4.6788	10.539
4.6746	10.565
4.6704	10.599
4.6662	10.639
4.662	10.684
4.6578	10.731
4.6536	10.778
4.6495	10.822
4.6453	10.865
4.6411	10.906
4.637	10.945
4.6328	10.986
4.6287	11.029
4.6246	11.072
4.6205	11.115
4.6163	11.154
4.6122	11.188
4.6081	11.214
4.604	11.234
4.6	11.25
4.5959	11.267
4.5918	11.288
4.5877	11.317
4.5837	11.353
4.5796	11.393
4.5756	11.434
4.5716	11.473
4.5675	11.507
4.5635	11.535
4.5595	11.557
4.5555	11.574
4.5515	11.589
4.5475	11.601
4.5435	11.612
4.5395	11.623
4.5356	11.636
4.5316	11.649
4.5276	11.663
4.5237	11.674
4.5197	11.682
4.5158	11.687
4.5119	11.69
4.508	11.691
4.504	11.693
4.5001	11.698
4.4962	11.704
4.4923	11.713
4.4884	11.723
4.4846	11.735
4.4807	11.749
4.4768	11.768
4.473	11.794
4.4691	11.827
4.4652	11.867
4.4614	11.913
4.4576	11.961
4.4537	12.007
4.4499	12.05
4.4461	12.09
4.4423	12.126
4.4385	12.163
4.4347	12.2
4.4309	12.238
4.4271	12.278
4.4233	12.317
4.4196	12.356
4.4158	12.393
4.412	12.431
4.4083	12.47
4.4045	12.513
4.4008	12.561
4.3971	12.615
4.3934	12.673
4.3896	12.732
4.3859	12.791
4.3822	12.847
4.3785	12.897
4.3748	12.942
4.3711	12.984
4.3674	13.025
4.3638	13.066
4.3601	13.111
4.3564	13.156
4.3528	13.203
4.3491	13.25
4.3455	13.294
4.3418	13.336
4.3382	13.375
4.3346	13.412
4.331	13.446
4.3273	13.479
4.3237	13.511
4.3201	13.541
4.3165	13.57
4.3129	13.598
4.3094	13.626
4.3058	13.655
4.3022	13.684
4.2986	13.713
4.2951	13.74
4.2915	13.764
4.288	13.785
4.2844	13.804
4.2809	13.823
4.2774	13.847
4.2738	13.879
4.2703	13.921
4.2668	13.973
4.2633	14.032
4.2598	14.095
4.2563	14.154
4.2528	14.206
4.2493	14.246
4.2458	14.276
4.2424	14.299
4.2389	14.321
4.2354	14.348
4.232	14.385
4.2285	14.435
4.2251	14.496
4.2216	14.566
4.2182	14.636
4.2148	14.703
4.2113	14.762
4.2079	14.811
4.2045	14.851
4.2011	14.884
4.1977	14.915
4.1943	14.945
4.1909	14.978
4.1875	15.013
4.1841	15.05
4.1808	15.089
4.1774	15.127
4.174	15.165
4.1707	15.2
4.1673	15.235
4.164	15.271
4.1606	15.309
4.1573	15.351
4.154	15.397
4.1506	15.445
4.1473	15.495
4.144	15.542
4.1407	15.586
4.1374	15.624
4.1341	15.657
4.1308	15.686
4.1275	15.712
4.1242	15.738
4.1209	15.764
4.1177	15.791
4.1144	15.82
4.1111	15.851
4.1079	15.883
4.1046	15.916
4.1014	15.948
4.0981	15.979
4.0949	16.008
4.0917	16.035
4.0884	16.062
4.0852	16.09
4.082	16.118
4.0788	16.148
4.0756	16.181
4.0724	16.216
4.0692	16.252
4.066	16.286
4.0628	16.319
4.0596	16.348
4.0565	16.373
4.0533	16.394
4.0501	16.412
4.047	16.427
4.0438	16.439
4.0406	16.45
4.0375	16.459
4.0344	16.464
4.0312	16.467
4.0281	16.467
4.025	16.466
4.0218	16.465
4.0187	16.467
4.0156	16.471
4.0125	16.476
4.0094	16.481
4.0063	16.481
4.0032	16.475
4.0001	16.461
3.997	16.441
3.994	16.418
3.9909	16.396
3.9878	16.379
3.9847	16.37
3.9817	16.371
3.9786	16.379
3.9756	16.392
3.9725	16.408
3.9695	16.426
3.9665	16.444
3.9634	16.464
3.9604	16.486
3.9574	16.51
3.9544	16.536
3.9513	16.561
3.9483	16.583
3.9453	16.599
3.9423	16.608
3.9393	16.612
3.9363	16.611
3.9333	16.608
3.9304	16.607
3.9274	16.608
3.9244	16.61
3.9214	16.613
3.9185	16.614
3.9155	16.612
3.9126	16.605
3.9096	16.595
3.9067	16.581
3.9037	16.566
3.9008	16.549
3.8979	16.532
3.8949	16.515
3.892	16.498
3.8891	16.481
3.8862	16.464
3.8833	16.448
3.8804	16.431
3.8775	16.414
3.8746	16.396
3.8717	16.374
3.8688	16.349
3.8659	16.323
3.863	16.296
3.8601	16.27
3.8573	16.246
3.8544	16.226
3.8515	16.209
3.8487	16.195
3.8458	16.182
3.843	16.17
3.8401	16.156
3.8373	16.14
3.8344	16.119
3.8316	16.094
3.8288	16.065
3.8259	16.032
3.8231	15.996
3.8203	15.96
3.8175	15.924
3.8147	15.889
3.8119	15.857
3.8091	15.826
3.8063	15.797
3.8035	15.769
3.8007	15.74
3.7979	15.709
3.7951	15.676
3.7924	15.64
3.7896	15.603
3.7868	15.564
3.7841	15.525
3.7813	15.485
3.7785	15.445
3.7758	15.403
3.773	15.359
3.7703	15.312
3.7676	15.264
3.7648	15.214
3.7621	15.165
3.7594	15.118
3.7566	15.073
3.7539	15.029
3.7512	14.985
3.7485	14.938
3.7458	14.89
3.7431	14.839
3.7404	14.786
3.7377	14.731
3.735	14.677
3.7323	14.625
3.7296	14.574
3.7269	14.526
3.7242	14.481
3.7216	14.436
3.7189	14.391
3.7162	14.344
3.7136	14.293
3.7109	14.238
3.7083	14.181
3.7056	14.123
3.703	14.067
3.7003	14.014
3.6977	13.965
3.695	13.918
3.6924	13.873
3.6898	13.827
3.6872	13.779
3.6845	13.729
3.6819	13.677
3.6793	13.626
3.6767	13.575
3.6741	13.524
3.6715	13.474
3.6689	13.423
3.6663	13.371
3.6637	13.318
3.6611	13.263
3.6585	13.207
3.656	13.149
3.6534	13.09
3.6508	13.031
3.6482	12.971
3.6457	12.91
3.6431	12.85
3.6406	12.791
3.638	12.735
3.6355	12.682
3.6329	12.632
3.6304	12.583
3.6278	12.535
3.6253	12.484
3.6227	12.43
3.6202	12.372
3.6177	12.309
3.6152	12.245
3.6127	12.179
3.6101	12.113
3.6076	12.05
3.6051	11.988
3.6026	11.929
3.6001	11.873
3.5976	11.821
3.5951	11.773
3.5926	11.728
3.5901	11.683
3.5876	11.637
3.5852	11.587
3.5827	11.532
3.5802	11.471
3.5777	11.405
3.5753	11.334
3.5728	11.261
3.5704	11.186
3.5679	11.111
3.5654	11.036
3.563	10.962
3.5605	10.888
3.5581	10.815
3.5557	10.742
3.5532	10.669
3.5508	10.597
3.5484	10.528
3.5459	10.464
3.5435	10.405
3.5411	10.354
3.5387	10.307
3.5363	10.263
3.5338	10.216
3.5314	10.164
3.529	10.103
3.5266	10.033
3.5242	9.955
3.5218	9.873
3.5195	9.789
3.5171	9.706
3.5147	9.625
3.5123	9.547
3.5099	9.471
3.5075	9.396
3.5052	9.323
3.5028	9.253
3.5004	9.184
3.4981	9.119
3.4957	9.057
3.4934	8.998
3.491	8.943
3.4887	8.888
3.4863	8.836
3.484	8.783
3.4816	8.732
3.4793	8.68
3.477	8.628
3.4746	8.576
3.4723	8.524
3.47	8.473
3.4677	8.426
3.4653	8.383
3.463	8.345
3.4607	8.308
3.4584	8.271
3.4561	8.23
3.4538	8.182
3.4515	8.127
3.4492	8.063
3.4469	7.992
3.4446	7.917
3.4423	7.837
3.44	7.757
3.4378	7.678
3.4355	7.601
3.4332	7.53
3.4309	7.464
3.4287	7.404
3.4264	7.346
3.4241	7.289
3.4219	7.232
3.4196	7.171
3.4174	7.109
3.4151	7.048
3.4129	6.99
3.4106	6.938
3.4084	6.892
3.4061	6.853
3.4039	6.819
3.4017	6.791
3.3994	6.764
3.3972	6.736
3.395	6.706
3.3928	6.671
3.3906	6.629
3.3883	6.5827
3.3861	6.5322
3.3839	6.4805
3.3817	6.4299
3.3795	6.3826
3.3773	6.3386
3.3751	6.2973
3.3729	6.2573
3.3707	6.2165
3.3685	6.1728
3.3663	6.1264
3.3641	6.0776
3.362	6.0278
3.3598	5.9783
3.3576	5.9302
3.3554	5.8835
3.3533	5.8379
3.3511	5.792
3.3489	5.7444
3.3468	5.6943
3.3446	5.6426
3.3425	5.5903
3.3403	5.5403
3.3382	5.4941
3.336	5.4526
3.3339	5.4158
3.3317	5.3823
3.3296	5.3508
3.3274	5.3205
3.3253	5.2895
3.3232	5.2576
3.321	5.2231
3.3189	5.1858
3.3168	5.145
3.3147	5.1015
3.3126	5.0564
3.3104	5.0105
3.3083	4.9651
3.3062	4.9211
3.3041	4.8786
3.302	4.8364
3.2999	4.7937
3.2978	4.7495
3.2957	4.7038
3.2936	4.657
3.2915	4.6103
3.2894	4.5649
3.2874	4.522
3.2853	4.4824
3.2832	4.4465
3.2811	4.4141
3.279	4.3838
3.277	4.355
3.2749	4.3266
3.2728	4.2971
3.2708	4.2651
3.2687	4.2297
3.2666	4.1899
3.2646	4.1462
3.2625	4.0996
3.2605	4.0522
3.2584	4.0063
3.2564	3.9646
3.2543	3.9282
3.2523	3.8977
3.2503	3.8716
3.2482	3.8476
3.2462	3.8242
3.2442	3.8
3.2421	3.7742
3.2401	3.7466
3.2381	3.718
3.2361	3.6877
3.234	3.6565
3.232	3.6245
3.23	3.5923
3.228	3.5605
3.226	3.5298
3.224	3.5007
3.222	3.4719
3.22	3.4434
3.218	3.4141
3.216	3.3838
3.214	3.3525
3.212	3.3218
3.21	3.2917
3.208	3.2629
3.206	3.2351
3.2041	3.2082
3.2021	3.1816
3.2001	3.1548
3.1981	3.1279
3.1961	3.1013
3.1942	3.0754
3.1922	3.0513
3.1902	3.0303
3.1883	3.0129
3.1863	2.9995
3.1844	2.9895
3.1824	2.9802
3.1805	2.9702
3.1785	2.9563
3.1766	2.9375
3.1746	2.9136
3.1727	2.8852
3.1707	2.8545
3.1688	2.8227
3.1669	2.7915
3.1649	2.7622
3.163	2.7356
3.1611	2.7124
3.1591	2.6926
3.1572	2.676
3.1553	2.6601
3.1534	2.6435
3.1515	2.623
3.1495	2.5984
3.1476	2.5696
3.1457	2.5378
3.1438	2.5066
3.1419	2.4778
3.14	2.4534
3.1381	2.4336
3.1362	2.418
3.1343	2.405
3.1324	2.3935
3.1305	2.3831
3.1286	2.3733
3.1268	2.3643
3.1249	2.3555
3.123	2.3455
3.1211	2.333
3.1192	2.3171
3.1174	2.2974
