Name:  Dark brown fine sandy loam 
Type:  Soils
Class:  Inceptisol
Subclass:  Haplumbrept
Particle Size:  see additional information
Sample No.:  86P4561
Owner:  JHU
Wavelength range:  All
Origin:  Haywood Co. NC. via USDA Soil Conservation service.

Description:  Dark brown fine sandy loam (sandy-skeletal, mixed, 
mesic Fluventic haplumbrept).




Measurement:  Directional (10 degree) hemispherical reflectance
First Column:  X
Second Column:  Y
X Units:  Wavelength (micrometers)
Y Units:  Reflectance (percent)
First X Value:  14.0112
Last X Value:  0.4000
Number of X Values:  2844
Additional information:  86P4561a.txt

14.0112	1.5186
13.9734	1.5566
13.9359	1.5720
13.8985	1.5886
13.8614	1.6008
13.8244	1.5889
13.7876	1.5688
13.7511	1.5691
13.7147	1.5820
13.6785	1.5986
13.6425	1.6165
13.6067	1.6401
13.5711	1.6533
13.5356	1.6565
13.5004	1.6560
13.4653	1.6558
13.4304	1.6538
13.3957	1.6526
13.3612	1.6553
13.3269	1.6589
13.2927	1.6653
13.2587	1.6755
13.2249	1.6833
13.1912	1.6860
13.1578	1.6877
13.1244	1.6946
13.0913	1.7009
13.0583	1.7229
13.0255	1.7600
12.9929	1.8015
12.9604	1.8518
12.9281	1.9138
12.8959	1.9853
12.8639	2.0576
12.8321	2.1118
12.8004	2.1367
12.7688	2.1211
12.7375	2.0671
12.7063	1.9919
12.6752	1.9250
12.6443	1.8850
12.6135	1.8938
12.5829	1.9397
12.5524	1.9968
12.5221	2.0415
12.4919	2.0525
12.4619	2.0098
12.4320	1.9238
12.4023	1.8096
12.3727	1.6934
12.3432	1.5915
12.3139	1.5232
12.2847	1.5002
12.2557	1.5178
12.2268	1.5540
12.1980	1.6006
12.1694	1.6494
12.1409	1.6960
12.1125	1.7314
12.0843	1.7583
12.0562	1.7864
12.0282	1.8081
12.0003	1.8232
11.9726	1.8418
11.9450	1.8735
11.9176	1.9233
11.8903	1.9724
11.8630	2.0222
11.8360	2.0713
11.8090	2.1094
11.7822	2.1404
11.7555	2.1697
11.7289	2.2007
11.7024	2.2329
11.6760	2.2678
11.6498	2.3066
11.6237	2.3430
11.5977	2.3772
11.5718	2.3984
11.5460	2.4187
11.5203	2.4390
11.4948	2.4558
11.4694	2.4800
11.4440	2.5081
11.4188	2.5349
11.3937	2.5598
11.3688	2.5737
11.3439	2.5884
11.3191	2.6018
11.2944	2.6125
11.2699	2.6211
11.2454	2.6294
11.2211	2.6428
11.1969	2.6655
11.1727	2.6926
11.1487	2.7175
11.1248	2.7368
11.1010	2.7573
11.0773	2.7690
11.0536	2.7727
11.0301	2.7734
11.0067	2.7661
10.9834	2.7524
10.9602	2.7380
10.9370	2.7214
10.9140	2.7107
10.8911	2.6975
10.8682	2.6912
10.8455	2.6902
10.8229	2.6894
10.8003	2.6877
10.7779	2.6899
10.7555	2.6926
10.7332	2.6987
10.7111	2.7046
10.6890	2.7148
10.6670	2.7297
10.6451	2.7488
10.6233	2.7656
10.6015	2.7837
10.5799	2.8096
10.5584	2.8469
10.5369	2.8960
10.5155	2.9551
10.4942	3.0183
10.4730	3.0823
10.4519	3.1399
10.4309	3.1909
10.4099	3.2385
10.3891	3.2849
10.3683	3.3308
10.3476	3.3750
10.3270	3.4138
10.3065	3.4492
10.2860	3.4829
10.2657	3.5173
10.2454	3.5508
10.2252	3.5830
10.2050	3.6111
10.1850	3.6394
10.1650	3.6704
10.1451	3.6982
10.1253	3.7204
10.1056	3.7429
10.0859	3.7656
10.0663	3.7805
10.0468	3.7871
10.0274	3.8083
10.0080	3.8533
9.9887	3.9082
9.9695	3.9704
9.9504	4.0444
9.9313	4.1152
9.9123	4.1660
9.8934	4.1990
9.8746	4.2212
9.8558	4.2353
9.8371	4.2456
9.8185	4.2554
9.7999	4.2729
9.7814	4.3003
9.7630	4.3420
9.7447	4.3962
9.7264	4.4519
9.7082	4.5034
9.6900	4.5493
9.6719	4.5867
9.6539	4.6101
9.6360	4.6191
9.6181	4.6099
9.6003	4.5766
9.5825	4.5334
9.5649	4.4888
9.5472	4.4463
9.5297	4.4141
9.5122	4.3911
9.4948	4.3743
9.4774	4.3662
9.4601	4.3706
9.4429	4.4111
9.4257	4.4885
9.4086	4.5962
9.3916	4.7273
9.3746	4.8716
9.3577	5.0068
9.3408	5.1250
9.3240	5.2156
9.3073	5.2822
9.2906	5.3252
9.2740	5.3442
9.2574	5.3435
9.2409	5.3381
9.2245	5.3276
9.2081	5.3135
9.1918	5.2969
9.1755	5.2834
9.1593	5.2690
9.1431	5.2432
9.1270	5.2090
9.1110	5.1772
9.0950	5.1438
9.0791	5.1218
9.0632	5.1025
9.0474	5.0759
9.0316	5.0447
9.0159	5.0127
9.0003	4.9834
8.9847	4.9568
8.9691	4.9365
8.9536	4.9326
8.9382	4.9372
8.9228	4.9441
8.9075	4.9578
8.8922	4.9746
8.8770	4.9866
8.8618	4.9905
8.8467	4.9849
8.8316	4.9663
8.8166	4.9451
8.8016	4.9202
8.7867	4.8882
8.7718	4.8479
8.7570	4.7998
8.7423	4.7561
8.7275	4.7129
8.7129	4.6496
8.6982	4.5515
8.6837	4.4048
8.6692	4.2226
8.6547	4.0425
8.6403	3.9084
8.6259	3.8691
8.6116	3.9451
8.5973	4.1072
8.5830	4.3057
8.5688	4.4929
8.5547	4.6472
8.5406	4.7558
8.5266	4.8227
8.5126	4.8635
8.4986	4.8972
8.4847	4.9302
8.4708	4.9617
8.4570	4.9878
8.4432	5.0163
8.4295	5.0454
8.4158	5.0720
8.4022	5.0896
8.3886	5.1064
8.3750	5.1308
8.3615	5.1460
8.3481	5.1467
8.3347	5.1450
8.3213	5.1453
8.3079	5.1382
8.2946	5.1213
8.2814	5.0976
8.2682	5.0710
8.2550	5.0300
8.2419	4.9741
8.2288	4.9092
8.2158	4.8379
8.2028	4.7541
8.1898	4.6594
8.1769	4.5478
8.1640	4.4211
8.1512	4.2783
8.1384	4.1194
8.1256	3.9556
8.1129	3.7917
8.1002	3.6306
8.0876	3.4773
8.0750	3.3320
8.0624	3.1970
8.0499	3.0727
8.0374	2.9592
8.0250	2.8520
8.0126	2.7512
8.0002	2.6597
7.9879	2.5762
7.9756	2.5017
7.9634	2.4338
7.9512	2.3684
7.9390	2.3054
7.9268	2.2427
7.9147	2.1858
7.9027	2.1338
7.8906	2.0842
7.8786	2.0391
7.8667	1.9990
7.8548	1.9614
7.8429	1.9343
7.8310	1.9185
7.8192	1.9111
7.8075	1.9043
7.7957	1.8989
7.7840	1.8926
7.7723	1.8840
7.7607	1.8711
7.7491	1.8665
7.7375	1.8652
7.7260	1.8574
7.7145	1.8435
7.7031	1.8306
7.6916	1.8123
7.6802	1.7873
7.6689	1.7676
7.6575	1.7605
7.6462	1.7576
7.6350	1.7515
7.6238	1.7446
7.6126	1.7415
7.6014	1.7344
7.5903	1.7229
7.5792	1.7136
7.5681	1.7053
7.5571	1.6960
7.5461	1.6880
7.5351	1.6824
7.5242	1.6821
7.5133	1.6765
7.5024	1.6714
7.4916	1.6689
7.4807	1.6655
7.4700	1.6621
7.4592	1.6609
7.4485	1.6597
7.4378	1.6597
7.4272	1.6577
7.4165	1.6609
7.4059	1.6643
7.3954	1.6633
7.3848	1.6577
7.3743	1.6484
7.3639	1.6340
7.3534	1.6228
7.3430	1.6125
7.3326	1.6035
7.3223	1.5957
7.3119	1.5906
7.3016	1.5825
7.2914	1.5767
7.2811	1.5762
7.2709	1.5779
7.2607	1.5723
7.2506	1.5627
7.2404	1.5571
7.2303	1.5564
7.2203	1.5583
7.2102	1.5666
7.2002	1.5781
7.1902	1.5850
7.1803	1.5825
7.1703	1.5781
7.1604	1.5715
7.1506	1.5698
7.1407	1.5784
7.1309	1.5908
7.1211	1.6028
7.1113	1.6160
7.1016	1.6216
7.0919	1.6216
7.0822	1.6174
7.0725	1.6099
7.0629	1.6030
7.0533	1.5998
7.0437	1.6028
7.0341	1.6155
7.0246	1.6299
7.0151	1.6475
7.0056	1.6672
6.9962	1.6811
6.9867	1.6887
6.9773	1.6943
6.9679	1.6997
6.9586	1.7102
6.9493	1.7275
6.9400	1.7500
6.9307	1.7722
6.9214	1.7900
6.9122	1.8000
6.9030	1.8064
6.8938	1.8059
6.8847	1.8005
6.8755	1.8008
6.8664	1.8091
6.8573	1.8249
6.8483	1.8457
6.8393	1.8706
6.8302	1.9006
6.8213	1.9258
6.8123	1.9438
6.8034	1.9617
6.7944	1.9917
6.7855	2.0339
6.7767	2.0859
6.7678	2.1448
6.7590	2.1997
6.7502	2.2414
6.7414	2.2681
6.7327	2.2800
6.7239	2.2871
6.7152	2.2881
6.7065	2.2873
6.6979	2.2927
6.6892	2.2974
6.6806	2.3005
6.6720	2.2974
6.6634	2.2754
6.6549	2.2434
6.6464	2.2080
6.6378	2.1780
6.6294	2.1633
6.6209	2.1609
6.6124	2.1604
6.6040	2.1536
6.5956	2.1279
6.5872	2.0989
6.5789	2.0757
6.5705	2.0586
6.5622	2.0530
6.5539	2.0569
6.5456	2.0581
6.5374	2.0561
6.5292	2.0452
6.5209	2.0259
6.5128	1.9980
6.5046	1.9680
6.4964	1.9456
6.4883	1.9355
6.4802	1.9348
6.4721	1.9434
6.4640	1.9539
6.4560	1.9543
6.4480	1.9421
6.4399	1.9138
6.4320	1.8784
6.4240	1.8540
6.4160	1.8430
6.4081	1.8452
6.4002	1.8579
6.3923	1.8716
6.3844	1.8777
6.3766	1.8655
6.3687	1.8425
6.3609	1.8203
6.3531	1.7998
6.3454	1.7869
6.3376	1.7871
6.3299	1.7930
6.3221	1.7976
6.3144	1.7974
6.3068	1.7910
6.2991	1.7793
6.2914	1.7595
6.2838	1.7358
6.2762	1.7153
6.2686	1.6985
6.2611	1.6816
6.2535	1.6682
6.2460	1.6597
6.2385	1.6553
6.2310	1.6545
6.2235	1.6536
6.2160	1.6504
6.2086	1.6431
6.2011	1.6289
6.1937	1.6121
6.1863	1.5908
6.1790	1.5713
6.1716	1.5596
6.1643	1.5513
6.1570	1.5444
6.1496	1.5400
6.1424	1.5364
6.1351	1.5325
6.1278	1.5276
6.1206	1.5227
6.1134	1.5222
6.1062	1.5249
6.0990	1.5249
6.0918	1.5251
6.0847	1.5234
6.0776	1.5161
6.0704	1.4971
6.0633	1.4763
6.0563	1.4639
6.0492	1.4641
6.0421	1.4763
6.0351	1.4954
6.0281	1.5212
6.0211	1.5491
6.0141	1.5635
6.0071	1.5701
6.0002	1.5730
5.9932	1.5796
5.9863	1.5974
5.9794	1.6191
5.9725	1.6438
5.9657	1.6704
5.9588	1.6914
5.9520	1.7065
5.9451	1.7214
5.9383	1.7427
5.9315	1.7759
5.9247	1.8201
5.9180	1.8613
5.9112	1.8962
5.9045	1.9211
5.8978	1.9397
5.8911	1.9653
5.8844	1.9985
5.8777	2.0444
5.8711	2.1079
5.8644	2.1768
5.8578	2.2380
5.8512	2.2861
5.8446	2.3218
5.8380	2.3472
5.8314	2.3684
5.8249	2.3979
5.8184	2.4468
5.8118	2.5095
5.8053	2.5762
5.7988	2.6414
5.7923	2.6968
5.7859	2.7322
5.7794	2.7632
5.7730	2.8030
5.7666	2.8581
5.7602	2.9309
5.7538	3.0200
5.7474	3.1133
5.7410	3.2036
5.7347	3.2832
5.7283	3.3581
5.7220	3.4370
5.7157	3.5225
5.7094	3.6164
5.7031	3.7202
5.6969	3.8223
5.6906	3.9160
5.6844	4.0061
5.6782	4.0871
5.6719	4.1614
5.6657	4.2251
5.6596	4.2722
5.6534	4.3174
5.6472	4.3662
5.6411	4.4238
5.6349	4.4963
5.6288	4.5815
5.6227	4.6753
5.6166	4.7654
5.6106	4.8452
5.6045	4.9226
5.5984	4.9944
5.5924	5.0657
5.5864	5.1431
5.5804	5.2307
5.5744	5.3271
5.5684	5.4265
5.5624	5.5283
5.5564	5.6284
5.5505	5.7197
5.5445	5.8078
5.5386	5.8957
5.5327	5.9807
5.5268	6.0622
5.5209	6.1411
5.5151	6.2187
5.5092	6.2961
5.5033	6.3733
5.4975	6.4436
5.4917	6.5063
5.4859	6.5613
5.4801	6.6076
5.4743	6.6533
5.4685	6.7043
5.4628	6.7644
5.4570	6.8308
5.4513	6.8913
5.4455	6.9419
5.4398	6.9697
5.4341	6.9702
5.4284	6.9575
5.4228	6.9441
5.4171	6.9392
5.4114	6.9436
5.4058	6.9521
5.4002	6.9592
5.3945	6.9551
5.3889	6.9402
5.3833	6.9180
5.3778	6.8933
5.3722	6.8703
5.3666	6.8503
5.3611	6.8376
5.3555	6.8357
5.3500	6.8493
5.3445	6.8794
5.3390	6.9214
5.3335	6.9673
5.3280	7.0105
5.3225	7.0478
5.3171	7.0825
5.3116	7.1128
5.3062	7.1426
5.3008	7.1782
5.2954	7.2175
5.2900	7.2556
5.2846	7.2959
5.2792	7.3410
5.2738	7.3935
5.2684	7.4490
5.2631	7.5090
5.2578	7.5754
5.2524	7.6418
5.2471	7.7058
5.2418	7.7720
5.2365	7.8398
5.2312	7.9048
5.2260	7.9614
5.2207	8.0171
5.2154	8.0737
5.2102	8.1277
5.2050	8.1784
5.1998	8.2261
5.1945	8.2702
5.1893	8.3042
5.1842	8.3254
5.1790	8.3413
5.1738	8.3557
5.1686	8.3691
5.1635	8.3801
5.1584	8.3921
5.1532	8.4087
5.1481	8.4262
5.1430	8.4433
5.1379	8.4599
5.1328	8.4763
5.1277	8.4961
5.1227	8.5166
5.1176	8.5368
5.1126	8.5591
5.1075	8.5796
5.1025	8.5947
5.0975	8.6008
5.0925	8.6011
5.0875	8.6008
5.0825	8.5971
5.0775	8.5952
5.0726	8.6008
5.0676	8.6123
5.0627	8.6235
5.0577	8.6382
5.0528	8.6614
5.0479	8.6828
5.0430	8.6946
5.0380	8.7036
5.0332	8.7104
5.0283	8.7151
5.0234	8.7195
5.0185	8.7265
5.0137	8.7402
5.0088	8.7522
5.0040	8.7595
4.9992	8.7710
4.9944	8.7888
4.9896	8.8149
4.9848	8.8491
4.9800	8.8872
4.9752	8.9328
4.9704	8.9829
4.9657	9.0322
4.9609	9.0869
4.9562	9.1416
4.9514	9.1902
4.9467	9.2322
4.9420	9.2666
4.9373	9.2937
4.9326	9.3215
4.9279	9.3598
4.9232	9.4111
4.9186	9.4731
4.9139	9.5437
4.9092	9.6257
4.9046	9.7175
4.9000	9.8152
4.8953	9.9197
4.8907	10.0271
4.8861	10.1313
4.8815	10.2285
4.8769	10.3169
4.8723	10.3960
4.8678	10.4702
4.8632	10.5395
4.8586	10.6015
4.8541	10.6582
4.8495	10.7155
4.8450	10.7729
4.8405	10.8259
4.8360	10.8708
4.8315	10.9133
4.8270	10.9543
4.8225	10.9936
4.8180	11.0346
4.8135	11.0793
4.8090	11.1252
4.8046	11.1677
4.8001	11.2021
4.7957	11.2319
4.7913	11.2619
4.7868	11.2917
4.7824	11.3227
4.7780	11.3579
4.7736	11.3938
4.7692	11.4345
4.7648	11.4748
4.7605	11.5068
4.7561	11.5317
4.7517	11.5537
4.7474	11.5786
4.7431	11.6035
4.7387	11.6257
4.7344	11.6543
4.7301	11.6872
4.7258	11.7158
4.7215	11.7375
4.7172	11.7534
4.7129	11.7622
4.7086	11.7632
4.7043	11.7570
4.7000	11.7480
4.6958	11.7353
4.6915	11.7236
4.6873	11.7170
4.6831	11.7168
4.6788	11.7285
4.6746	11.7607
4.6704	11.8139
4.6662	11.8752
4.6620	11.9326
4.6578	11.9922
4.6536	12.0559
4.6495	12.1162
4.6453	12.1770
4.6411	12.2392
4.6370	12.3025
4.6328	12.3598
4.6287	12.4082
4.6246	12.4553
4.6205	12.5039
4.6163	12.5507
4.6122	12.5969
4.6081	12.6438
4.6040	12.6926
4.6000	12.7424
4.5959	12.7812
4.5918	12.8127
4.5877	12.8425
4.5837	12.8667
4.5796	12.8852
4.5756	12.9038
4.5716	12.9260
4.5675	12.9475
4.5635	12.9638
4.5595	12.9785
4.5555	12.9880
4.5515	12.9904
4.5475	12.9882
4.5435	12.9824
4.5395	12.9773
4.5356	12.9731
4.5316	12.9663
4.5276	12.9507
4.5237	12.9204
4.5197	12.8791
4.5158	12.8342
4.5119	12.7876
4.5080	12.7412
4.5040	12.7007
4.5001	12.6674
4.4962	12.6428
4.4923	12.6259
4.4884	12.6198
4.4846	12.6272
4.4807	12.6418
4.4768	12.6528
4.4730	12.6594
4.4691	12.6628
4.4652	12.6696
4.4614	12.6899
4.4576	12.7180
4.4537	12.7509
4.4499	12.7929
4.4461	12.8391
4.4423	12.8803
4.4385	12.9128
4.4347	12.9423
4.4309	12.9773
4.4271	13.0092
4.4233	13.0363
4.4196	13.0703
4.4158	13.1108
4.4120	13.1494
4.4083	13.1828
4.4045	13.2185
4.4008	13.2575
4.3971	13.2964
4.3934	13.3337
4.3896	13.3706
4.3859	13.4099
4.3822	13.4477
4.3785	13.4829
4.3748	13.5202
4.3711	13.5522
4.3674	13.5793
4.3638	13.6042
4.3601	13.6189
4.3564	13.6274
4.3528	13.6345
4.3491	13.6450
4.3455	13.6591
4.3418	13.6743
4.3382	13.6931
4.3346	13.7104
4.3310	13.7209
4.3273	13.7236
4.3237	13.7187
4.3201	13.7094
4.3165	13.6972
4.3129	13.6821
4.3094	13.6631
4.3058	13.6425
4.3022	13.6242
4.2986	13.6023
4.2951	13.5776
4.2915	13.5554
4.2880	13.5400
4.2844	13.5317
4.2809	13.5290
4.2774	13.5317
4.2738	13.5442
4.2703	13.5610
4.2668	13.5783
4.2633	13.6010
4.2598	13.6230
4.2563	13.6352
4.2528	13.6323
4.2493	13.6164
4.2458	13.5952
4.2424	13.5681
4.2389	13.5388
4.2354	13.5183
4.2320	13.5075
4.2285	13.5056
4.2251	13.5134
4.2216	13.5305
4.2182	13.5500
4.2148	13.5625
4.2113	13.5720
4.2079	13.5808
4.2045	13.5827
4.2011	13.5827
4.1977	13.5815
4.1943	13.5810
4.1909	13.5761
4.1875	13.5627
4.1841	13.5542
4.1808	13.5603
4.1774	13.5683
4.1740	13.5730
4.1707	13.5688
4.1673	13.5586
4.1640	13.5410
4.1606	13.5119
4.1573	13.4887
4.1540	13.4824
4.1506	13.4792
4.1473	13.4714
4.1440	13.4611
4.1407	13.4502
4.1374	13.4392
4.1341	13.4270
4.1308	13.4167
4.1275	13.4079
4.1242	13.3940
4.1209	13.3777
4.1177	13.3608
4.1144	13.3459
4.1111	13.3322
4.1079	13.3203
4.1046	13.3108
4.1014	13.3022
4.0981	13.2893
4.0949	13.2729
4.0917	13.2536
4.0884	13.2324
4.0852	13.2080
4.0820	13.1894
4.0788	13.1833
4.0756	13.1809
4.0724	13.1770
4.0692	13.1692
4.0660	13.1530
4.0628	13.1320
4.0596	13.1057
4.0565	13.0791
4.0533	13.0534
4.0501	13.0261
4.0470	13.0002
4.0438	12.9763
4.0406	12.9575
4.0375	12.9460
4.0344	12.9331
4.0312	12.9174
4.0281	12.8977
4.0250	12.8718
4.0218	12.8447
4.0187	12.8205
4.0156	12.8010
4.0125	12.7824
4.0094	12.7646
4.0063	12.7487
4.0032	12.7339
4.0001	12.7185
3.9970	12.7072
3.9940	12.7016
3.9909	12.6936
3.9878	12.6828
3.9847	12.6718
3.9817	12.6572
3.9786	12.6447
3.9756	12.6318
3.9725	12.6154
3.9695	12.6003
3.9665	12.5861
3.9634	12.5705
3.9604	12.5559
3.9574	12.5373
3.9544	12.5183
3.9513	12.4987
3.9483	12.4802
3.9453	12.4675
3.9423	12.4638
3.9393	12.4582
3.9363	12.4448
3.9333	12.4265
3.9304	12.4050
3.9274	12.3864
3.9244	12.3720
3.9214	12.3618
3.9185	12.3557
3.9155	12.3427
3.9126	12.3193
3.9096	12.2942
3.9067	12.2678
3.9037	12.2424
3.9008	12.2190
3.8979	12.1965
3.8949	12.1775
3.8920	12.1594
3.8891	12.1430
3.8862	12.1284
3.8833	12.1074
3.8804	12.0827
3.8775	12.0578
3.8746	12.0334
3.8717	12.0119
3.8688	11.9917
3.8659	11.9697
3.8630	11.9433
3.8601	11.9067
3.8573	11.8694
3.8544	11.8381
3.8515	11.8130
3.8487	11.7932
3.8458	11.7778
3.8430	11.7619
3.8401	11.7429
3.8373	11.7165
3.8344	11.6889
3.8316	11.6589
3.8288	11.6201
3.8259	11.5796
3.8231	11.5442
3.8203	11.5122
3.8175	11.4851
3.8147	11.4616
3.8119	11.4450
3.8091	11.4243
3.8063	11.3913
3.8035	11.3550
3.8007	11.3208
3.7979	11.2898
3.7951	11.2588
3.7924	11.2309
3.7896	11.2107
3.7868	11.1887
3.7841	11.1618
3.7813	11.1330
3.7785	11.0991
3.7758	11.0632
3.7730	11.0239
3.7703	10.9795
3.7676	10.9306
3.7648	10.8872
3.7621	10.8525
3.7594	10.8215
3.7566	10.7915
3.7539	10.7636
3.7512	10.7348
3.7485	10.6987
3.7458	10.6582
3.7431	10.6242
3.7404	10.5876
3.7377	10.5468
3.7350	10.5110
3.7323	10.4775
3.7296	10.4389
3.7269	10.3955
3.7242	10.3581
3.7216	10.3291
3.7189	10.2932
3.7162	10.2575
3.7136	10.2341
3.7109	10.2094
3.7083	10.1731
3.7056	10.1291
3.7030	10.0906
3.7003	10.0564
3.6977	10.0202
3.6950	9.9883
3.6924	9.9619
3.6898	9.9353
3.6872	9.9011
3.6845	9.8608
3.6819	9.8220
3.6793	9.7793
3.6767	9.7356
3.6741	9.6985
3.6715	9.6699
3.6689	9.6416
3.6663	9.6069
3.6637	9.5715
3.6611	9.5371
3.6585	9.4988
3.6560	9.4577
3.6534	9.4162
3.6508	9.3762
3.6482	9.3344
3.6457	9.2995
3.6431	9.2715
3.6406	9.2422
3.6380	9.2116
3.6355	9.1806
3.6329	9.1433
3.6304	9.0981
3.6278	9.0473
3.6253	8.9963
3.6227	8.9526
3.6202	8.9111
3.6177	8.8782
3.6152	8.8559
3.6127	8.8308
3.6101	8.7939
3.6076	8.7453
3.6051	8.6953
3.6026	8.6443
3.6001	8.5918
3.5976	8.5517
3.5951	8.5180
3.5926	8.4853
3.5901	8.4558
3.5876	8.4216
3.5852	8.3825
3.5827	8.3379
3.5802	8.2927
3.5777	8.2539
3.5753	8.2136
3.5728	8.1767
3.5704	8.1404
3.5679	8.0967
3.5654	8.0520
3.5630	8.0054
3.5605	7.9516
3.5581	7.8974
3.5557	7.8459
3.5532	7.8005
3.5508	7.7615
3.5484	7.7292
3.5459	7.6994
3.5435	7.6584
3.5411	7.6057
3.5387	7.5444
3.5363	7.4736
3.5338	7.3989
3.5314	7.3269
3.5290	7.2580
3.5266	7.1897
3.5242	7.1179
3.5218	7.0344
3.5195	6.9350
3.5171	6.8181
3.5147	6.6846
3.5123	6.5478
3.5099	6.4201
3.5075	6.3144
3.5052	6.2439
3.5028	6.2085
3.5004	6.2038
3.4981	6.2197
3.4957	6.2412
3.4934	6.2593
3.4910	6.2590
3.4887	6.2444
3.4863	6.2292
3.4840	6.2063
3.4816	6.1782
3.4793	6.1557
3.4770	6.1360
3.4746	6.1142
3.4723	6.0859
3.4700	6.0576
3.4677	6.0290
3.4653	5.9931
3.4630	5.9546
3.4607	5.9153
3.4584	5.8728
3.4561	5.8308
3.4538	5.7873
3.4515	5.7412
3.4492	5.6963
3.4469	5.6577
3.4446	5.6140
3.4423	5.5664
3.4400	5.5144
3.4378	5.4492
3.4355	5.3723
3.4332	5.2837
3.4309	5.1894
3.4287	5.1064
3.4264	5.0361
3.4241	4.9846
3.4219	4.9441
3.4196	4.9089
3.4174	4.8818
3.4151	4.8640
3.4129	4.8608
3.4106	4.8774
3.4084	4.9021
3.4061	4.9253
3.4039	4.9441
3.4017	4.9536
3.3994	4.9541
3.3972	4.9624
3.3950	4.9849
3.3928	5.0110
3.3906	5.0310
3.3883	5.0517
3.3861	5.0715
3.3839	5.0771
3.3817	5.0698
3.3795	5.0586
3.3773	5.0478
3.3751	5.0378
3.3729	5.0320
3.3707	5.0359
3.3685	5.0481
3.3663	5.0644
3.3641	5.0779
3.3620	5.0830
3.3598	5.0832
3.3576	5.0852
3.3554	5.0864
3.3533	5.0864
3.3511	5.0891
3.3489	5.0986
3.3468	5.1028
3.3446	5.0935
3.3425	5.0791
3.3403	5.0742
3.3382	5.0710
3.3360	5.0679
3.3339	5.0696
3.3317	5.0674
3.3296	5.0517
3.3274	5.0298
3.3253	5.0068
3.3232	4.9839
3.3210	4.9495
3.3189	4.9116
3.3168	4.8874
3.3147	4.8669
3.3126	4.8479
3.3104	4.8415
3.3083	4.8440
3.3062	4.8440
3.3041	4.8254
3.3020	4.7944
3.2999	4.7712
3.2978	4.7529
3.2957	4.7331
3.2936	4.7202
3.2915	4.7126
3.2894	4.7036
3.2874	4.6841
3.2853	4.6565
3.2832	4.6306
3.2811	4.5986
3.2790	4.5615
3.2770	4.5281
3.2749	4.4961
3.2728	4.4631
3.2708	4.4331
3.2687	4.4126
3.2666	4.4011
3.2646	4.3882
3.2625	4.3738
3.2605	4.3584
3.2584	4.3389
3.2564	4.3159
3.2543	4.2942
3.2523	4.2737
3.2503	4.2519
3.2482	4.2319
3.2462	4.2114
3.2442	4.1841
3.2421	4.1543
3.2401	4.1350
3.2381	4.1172
3.2361	4.0925
3.2340	4.0701
3.2320	4.0564
3.2300	4.0432
3.2280	4.0278
3.2260	4.0188
3.2240	4.0115
3.2220	3.9980
3.2200	3.9866
3.2180	3.9787
3.2160	3.9624
3.2140	3.9360
3.2120	3.9150
3.2100	3.8996
3.2080	3.8811
3.2060	3.8581
3.2041	3.8406
3.2021	3.8254
3.2001	3.8071
3.1981	3.7920
3.1961	3.7815
3.1942	3.7732
3.1922	3.7580
3.1902	3.7353
