Name:  Brown sandy loam
Type:  Soils
Class:  Alfisol
Subclass:  Paleustalf
Particle Size:  see additional information
Sample No.:  87P2410
Owner:  JHU
Wavelength range:  All
Origin:  Llano Co., Tx. via USDA Soil Conservation service.

Description:  The parent material is granitic rock from level or 
undulating plains.  Brown sandy loam (fine, mixed, thermic udic).




Measurement:  Directional (10 degree) hemispherical reflectance
First Column:  X
Second Column:  Y
X Units:  Wavelength (micrometers)
Y Units:  Reflectance (percent)
First X Value:  14.0112
Last X Value:  0.4000
Number of X Values:  2844
Additional information:  87P2410a.txt

14.0112	2.0520
13.9734	2.0413
13.9359	1.9094
13.8985	1.9766
13.8614	2.0522
13.8244	2.0984
13.7876	2.1201
13.7511	2.1460
13.7147	2.1626
13.6785	2.1582
13.6425	2.1477
13.6067	2.1873
13.5711	2.1995
13.5356	2.1894
13.5004	2.1943
13.4653	2.1956
13.4304	2.2368
13.3957	2.3015
13.3612	2.2480
13.3269	2.2158
13.2927	2.2724
13.2587	2.3037
13.2249	2.3259
13.1912	2.3760
13.1577	2.3418
13.1244	2.3245
13.0913	2.3447
13.0583	2.4094
13.0255	2.4346
12.9929	2.4353
12.9604	2.4365
12.9281	2.4631
12.8959	2.5720
12.8639	2.6477
12.8321	2.6370
12.8004	2.6435
12.7688	2.5532
12.7375	2.4070
12.7063	2.2353
12.6752	2.1521
12.6443	2.0879
12.6135	2.0862
12.5829	2.1731
12.5524	2.2712
12.5221	2.3124
12.4919	2.2768
12.4619	2.1816
12.4320	2.0488
12.4023	1.8455
12.3727	1.6457
12.3432	1.5178
12.3139	1.4668
12.2847	1.4944
12.2557	1.5435
12.2268	1.6335
12.1980	1.7585
12.1694	1.7827
12.1409	1.7976
12.1125	1.9065
12.0843	2.0298
12.0562	2.1284
12.0282	2.1897
12.0003	2.2270
11.9726	2.3276
11.9450	2.4087
11.9176	2.5178
11.8903	2.5940
11.8631	2.6333
11.8360	2.6604
11.8090	2.7085
11.7822	2.7717
11.7555	2.8184
11.7289	2.8323
11.7024	2.8684
11.6760	2.9287
11.6498	2.9714
11.6237	2.9636
11.5977	2.9372
11.5718	2.9072
11.5460	2.9150
11.5203	2.8982
11.4948	2.9177
11.4694	2.9409
11.4440	2.9617
11.4188	2.9814
11.3937	3.0090
11.3688	3.0146
11.3439	3.0156
11.3191	3.0059
11.2944	3.0632
11.2699	3.1238
11.2455	3.1326
11.2211	3.0691
11.1969	3.0505
11.1727	3.0654
11.1487	3.0933
11.1248	3.0767
11.1010	3.0549
11.0773	3.0561
11.0536	3.0244
11.0301	2.9866
11.0067	3.0095
10.9834	2.9753
10.9602	2.9238
10.9370	2.9263
10.9140	2.9382
10.8911	2.9392
10.8682	2.9756
10.8455	2.9582
10.8229	2.9651
10.8003	2.9785
10.7779	3.0127
10.7555	3.0268
10.7332	3.0217
10.7111	3.0132
10.6890	3.0322
10.6670	3.0583
10.6451	3.0940
10.6233	3.1211
10.6015	3.1184
10.5799	3.1113
10.5584	3.1250
10.5369	3.1499
10.5155	3.1980
10.4942	3.2158
10.4730	3.2319
10.4519	3.2471
10.4309	3.3008
10.4099	3.3249
10.3891	3.3281
10.3683	3.3686
10.3476	3.3913
10.3270	3.4065
10.3065	3.4770
10.2860	3.5139
10.2656	3.5393
10.2454	3.5903
10.2251	3.6650
10.2050	3.7014
10.1850	3.7473
10.1650	3.8176
10.1451	3.9133
10.1253	3.9722
10.1056	4.0393
10.0859	4.0933
10.0663	4.1999
10.0468	4.3247
10.0274	4.3860
10.0080	4.4082
9.9887	4.4307
9.9695	4.4787
9.9504	4.6401
9.9313	4.7092
9.9123	4.7046
9.8934	4.7151
9.8746	4.7474
9.8558	4.7392
9.8371	4.7444
9.8185	4.8193
9.7999	4.9070
9.7814	4.9424
9.7630	4.9814
9.7447	5.0740
9.7264	5.1743
9.7082	5.2480
9.6900	5.3472
9.6719	5.4470
9.6539	5.5234
9.6360	5.5676
9.6181	5.6179
9.6003	5.6528
9.5825	5.7639
9.5649	5.8618
9.5472	5.9158
9.5297	5.9929
9.5122	6.0769
9.4948	6.1631
9.4774	6.2610
9.4601	6.3948
9.4429	6.5575
9.4257	6.6977
9.4086	6.8174
9.3916	7.0322
9.3746	7.3154
9.3577	7.5227
9.3408	7.6982
9.3240	7.8606
9.3073	7.9638
9.2906	7.9858
9.2740	8.0068
9.2574	7.9773
9.2409	7.9468
9.2245	7.9106
9.2081	7.9038
9.1918	7.8989
9.1755	7.8496
9.1593	7.7961
9.1431	7.7483
9.1270	7.6716
9.1110	7.6284
9.0950	7.5703
9.0791	7.4931
9.0632	7.4167
9.0474	7.3457
9.0316	7.3130
9.0159	7.3362
9.0003	7.3371
8.9847	7.2573
8.9691	7.2109
8.9536	7.3120
8.9382	7.3884
8.9228	7.3950
8.9075	7.4619
8.8922	7.5593
8.8770	7.6118
8.8618	7.6155
8.8467	7.6484
8.8316	7.6521
8.8166	7.6075
8.8016	7.6247
8.7867	7.6169
8.7718	7.5718
8.7570	7.5520
8.7422	7.5359
8.7275	7.5224
8.7129	7.5215
8.6982	7.4199
8.6837	7.2541
8.6692	7.0356
8.6547	6.6809
8.6403	6.3201
8.6259	6.2014
8.6116	6.3996
8.5973	6.7875
8.5830	7.1294
8.5688	7.3650
8.5547	7.5010
8.5406	7.6262
8.5266	7.7593
8.5126	7.7993
8.4986	7.8313
8.4847	7.9211
8.4708	7.9551
8.4570	7.9824
8.4432	8.0266
8.4295	8.0984
8.4158	8.1191
8.4022	8.1120
8.3886	8.1833
8.3750	8.2605
8.3615	8.2805
8.3481	8.3220
8.3347	8.3542
8.3213	8.3894
8.3079	8.4350
8.2946	8.5115
8.2814	8.5632
8.2682	8.5666
8.2550	8.6274
8.2419	8.7163
8.2288	8.7192
8.2158	8.6682
8.2028	8.5849
8.1898	8.4770
8.1769	8.3235
8.1640	8.0937
8.1512	7.8181
8.1384	7.5119
8.1256	7.1391
8.1129	6.7807
8.1002	6.4336
8.0876	6.1067
8.0750	5.8066
8.0624	5.5244
8.0499	5.2561
8.0374	4.9692
8.0250	4.7095
8.0126	4.5498
8.0002	4.3799
7.9879	4.1960
7.9756	3.9863
7.9634	3.7842
7.9512	3.6311
7.9390	3.4753
7.9268	3.2776
7.9147	3.1067
7.9027	2.9739
7.8906	2.8357
7.8786	2.6882
7.8667	2.5957
7.8548	2.5247
7.8429	2.4167
7.8310	2.3054
7.8192	2.2349
7.8075	2.1809
7.7957	2.1311
7.7840	2.1003
7.7723	2.0940
7.7607	2.0593
7.7491	2.0364
7.7375	2.0002
7.7260	1.9443
7.7145	1.9072
7.7031	1.8948
7.6916	1.8415
7.6802	1.8154
7.6689	1.8149
7.6575	1.8035
7.6462	1.7720
7.6350	1.7165
7.6238	1.6516
7.6126	1.6472
7.6014	1.6421
7.5903	1.6008
7.5792	1.5786
7.5681	1.5676
7.5571	1.5544
7.5461	1.5662
7.5351	1.5398
7.5242	1.5478
7.5133	1.5278
7.5024	1.4915
7.4916	1.4927
7.4807	1.4866
7.4700	1.4695
7.4592	1.4731
7.4485	1.4932
7.4378	1.4932
7.4272	1.4770
7.4165	1.4397
7.4059	1.4138
7.3954	1.4353
7.3848	1.4582
7.3743	1.4553
7.3639	1.4561
7.3534	1.4529
7.3430	1.4185
7.3326	1.4172
7.3223	1.4314
7.3119	1.4111
7.3016	1.4211
7.2914	1.4499
7.2811	1.4451
7.2709	1.4456
7.2607	1.4800
7.2506	1.4856
7.2404	1.4834
7.2303	1.4751
7.2203	1.4631
7.2102	1.4851
7.2002	1.5081
7.1902	1.5164
7.1803	1.5027
7.1703	1.5107
7.1604	1.5295
7.1506	1.5505
7.1407	1.5496
7.1309	1.5626
7.1211	1.5998
7.1113	1.6118
7.1016	1.6169
7.0919	1.5884
7.0822	1.5776
7.0725	1.5879
7.0629	1.5896
7.0533	1.5730
7.0437	1.5854
7.0341	1.6333
7.0246	1.6565
7.0151	1.6792
7.0056	1.6836
6.9962	1.6836
6.9867	1.6916
6.9773	1.7388
6.9679	1.7165
6.9586	1.7078
6.9493	1.7544
6.9400	1.7847
6.9307	1.8098
6.9214	1.8523
6.9122	1.8684
6.9030	1.8621
6.8938	1.8784
6.8847	1.9006
6.8755	1.8867
6.8664	1.8516
6.8573	1.8840
6.8483	1.9341
6.8393	1.9556
6.8302	1.9644
6.8213	1.9631
6.8123	1.9924
6.8034	2.0615
6.7944	2.0715
6.7855	2.0437
6.7767	2.0852
6.7678	2.1211
6.7590	2.1411
6.7502	2.1362
6.7414	2.1409
6.7327	2.1733
6.7239	2.1926
6.7152	2.1599
6.7065	2.1438
6.6979	2.1799
6.6892	2.2053
6.6806	2.2153
6.6720	2.2407
6.6634	2.2729
6.6549	2.2859
6.6464	2.2519
6.6378	2.1860
6.6294	2.2170
6.6209	2.2383
6.6124	2.2373
6.6040	2.2649
6.5956	2.2668
6.5872	2.2412
6.5789	2.1804
6.5705	2.1377
6.5622	2.1816
6.5539	2.2241
6.5456	2.2039
6.5374	2.2082
6.5292	2.2136
6.5209	2.2363
6.5128	2.3057
6.5046	2.2942
6.4964	2.2280
6.4883	2.2397
6.4802	2.2810
6.4721	2.3401
6.4640	2.3948
6.4560	2.3997
6.4480	2.3730
6.4399	2.3606
6.4320	2.3660
6.4240	2.3118
6.4160	2.2187
6.4081	2.2449
6.4002	2.3315
6.3923	2.3198
6.3844	2.2932
6.3766	2.2612
6.3687	2.2205
6.3609	2.2331
6.3531	2.1799
6.3454	2.0959
6.3376	2.1099
6.3299	2.1335
6.3221	2.1074
6.3144	2.0642
6.3068	2.0410
6.2991	2.0173
6.2914	1.9739
6.2838	1.9463
6.2762	1.9287
6.2686	1.9260
6.2611	1.9111
6.2535	1.8894
6.2460	1.8706
6.2385	1.8342
6.2310	1.7917
6.2235	1.7634
6.2160	1.7546
6.2086	1.7219
6.2011	1.7036
6.1937	1.7244
6.1863	1.7151
6.1790	1.7043
6.1716	1.6833
6.1643	1.6599
6.1570	1.6909
6.1496	1.7053
6.1424	1.7024
6.1351	1.7214
6.1278	1.7300
6.1206	1.7141
6.1134	1.6863
6.1062	1.7297
6.0990	1.7766
6.0918	1.7871
6.0847	1.7922
6.0776	1.7820
6.0704	1.8000
6.0633	1.8640
6.0563	1.8518
6.0492	1.7942
6.0421	1.8481
6.0351	1.9299
6.0281	1.9600
6.0211	1.9685
6.0141	1.9841
6.0071	2.0281
6.0002	2.0515
5.9932	2.0461
5.9863	2.0745
5.9794	2.1311
5.9725	2.1623
5.9657	2.1787
5.9588	2.2117
5.9520	2.2385
5.9451	2.2629
5.9383	2.2388
5.9315	2.2778
5.9247	2.3977
5.9180	2.4812
5.9112	2.5395
5.9045	2.5826
5.8978	2.5923
5.8911	2.6814
5.8844	2.7353
5.8777	2.8135
5.8711	2.9651
5.8644	3.0207
5.8578	3.1079
5.8512	3.1982
5.8446	3.2832
5.8380	3.3369
5.8314	3.3472
5.8249	3.3721
5.8184	3.4646
5.8118	3.5857
5.8053	3.6687
5.7988	3.7190
5.7923	3.8157
5.7859	3.8701
5.7794	3.9280
5.7730	3.9392
5.7666	3.9077
5.7602	4.0327
5.7538	4.1572
5.7474	4.1941
5.7410	4.2585
5.7347	4.3218
5.7283	4.3830
5.7220	4.4455
5.7157	4.4700
5.7094	4.4993
5.7031	4.5896
5.6969	4.6130
5.6906	4.5859
5.6844	4.5964
5.6782	4.5764
5.6719	4.5745
5.6657	4.5657
5.6596	4.4822
5.6534	4.4072
5.6472	4.3159
5.6411	4.2351
5.6349	4.2612
5.6288	4.2805
5.6227	4.2444
5.6166	4.2143
5.6106	4.2029
5.6045	4.1992
5.5984	4.2051
5.5924	4.2165
5.5864	4.2100
5.5804	4.2073
5.5744	4.2405
5.5684	4.2917
5.5624	4.3254
5.5564	4.3652
5.5505	4.3857
5.5445	4.4407
5.5386	4.5200
5.5327	4.5859
5.5268	4.6641
5.5209	4.7497
5.5151	4.8252
5.5092	4.8953
5.5033	4.9526
5.4975	5.0420
5.4917	5.1435
5.4859	5.2014
5.4801	5.2598
5.4743	5.3376
5.4685	5.3660
5.4628	5.3884
5.4570	5.4678
5.4513	5.5129
5.4455	5.5083
5.4398	5.4985
5.4341	5.4858
5.4284	5.4094
5.4228	5.2827
5.4171	5.2273
5.4114	5.1670
5.4058	5.0517
5.4002	4.9512
5.3945	4.8318
5.3889	4.6933
5.3833	4.5798
5.3778	4.4978
5.3722	4.4267
5.3666	4.3608
5.3611	4.2969
5.3555	4.2605
5.3500	4.2234
5.3445	4.2576
5.3390	4.3008
5.3335	4.3235
5.3280	4.3367
5.3225	4.3542
5.3171	4.4162
5.3116	4.4774
5.3062	4.4863
5.3008	4.5210
5.2954	4.5976
5.2900	4.6477
5.2846	4.7217
5.2792	4.8205
5.2738	4.9197
5.2684	5.0029
5.2631	5.1042
5.2578	5.2244
5.2524	5.3457
5.2471	5.4819
5.2418	5.6357
5.2365	5.7861
5.2312	5.9680
5.2260	6.1199
5.2207	6.2739
5.2154	6.3945
5.2102	6.5124
5.2050	6.6218
5.1998	6.7014
5.1945	6.7812
5.1893	6.8303
5.1842	6.8464
5.1790	6.8689
5.1738	6.9050
5.1686	6.9463
5.1635	6.9756
5.1584	6.9931
5.1532	7.0083
5.1481	7.0027
5.1430	7.0129
5.1379	7.0581
5.1328	7.0808
5.1277	7.1125
5.1227	7.1760
5.1176	7.2007
5.1126	7.2025
5.1075	7.2451
5.1025	7.2761
5.0975	7.2717
5.0925	7.2595
5.0875	7.2392
5.0825	7.2156
5.0775	7.1982
5.0726	7.1899
5.0676	7.1792
5.0627	7.1623
5.0577	7.1787
5.0528	7.2004
5.0479	7.2080
5.0430	7.2138
5.0380	7.2490
5.0332	7.2781
5.0283	7.2710
5.0234	7.2688
5.0185	7.2973
5.0137	7.3254
5.0088	7.3533
5.0040	7.4011
4.9992	7.4521
4.9944	7.5217
4.9896	7.5989
4.9848	7.6892
4.9800	7.8159
4.9752	7.9590
4.9704	8.1321
4.9657	8.3074
4.9609	8.4614
4.9562	8.5952
4.9514	8.7370
4.9467	8.8371
4.9420	8.9287
4.9373	8.9961
4.9326	9.0595
4.9279	9.1792
4.9232	9.3254
4.9186	9.5198
4.9139	9.7295
4.9092	9.9625
4.9046	10.2729
4.9000	10.6230
4.8953	10.9824
4.8907	11.3427
4.8861	11.6987
4.8815	12.0322
4.8769	12.3342
4.8723	12.6296
4.8678	12.9106
4.8632	13.1501
4.8586	13.3752
4.8541	13.6052
4.8495	13.8408
4.8450	14.0327
4.8405	14.1738
4.8360	14.3318
4.8315	14.4882
4.8270	14.6152
4.8225	14.7280
4.8180	14.8315
4.8135	14.9653
4.8090	15.0598
4.8046	15.1303
4.8001	15.2074
4.7957	15.3051
4.7913	15.4045
4.7868	15.5087
4.7824	15.5803
4.7780	15.6359
4.7736	15.7375
4.7692	15.8383
4.7648	15.9160
4.7605	16.0295
4.7561	16.1294
4.7517	16.1972
4.7474	16.2805
4.7431	16.3691
4.7387	16.4223
4.7344	16.4753
4.7301	16.5131
4.7258	16.5229
4.7215	16.5141
4.7172	16.4968
4.7129	16.4448
4.7086	16.3662
4.7043	16.2878
4.7000	16.1811
4.6958	16.0266
4.6915	15.9003
4.6873	15.8129
4.6831	15.7695
4.6788	15.7956
4.6746	15.9284
4.6704	16.0875
4.6662	16.2529
4.6620	16.4528
4.6578	16.6294
4.6536	16.8010
4.6495	16.9843
4.6453	17.1518
4.6411	17.3498
4.6370	17.5417
4.6328	17.7175
4.6287	17.8775
4.6246	18.0356
4.6205	18.1965
4.6163	18.3112
4.6122	18.4184
4.6081	18.5256
4.6040	18.6220
4.6000	18.7290
4.5959	18.8122
4.5918	18.8745
4.5877	18.9309
4.5837	19.0356
4.5796	19.1235
4.5756	19.1518
4.5716	19.2143
4.5675	19.2636
4.5635	19.2858
4.5595	19.2995
4.5555	19.2922
4.5515	19.2900
4.5475	19.2492
4.5435	19.1818
4.5395	19.1154
4.5356	19.0141
4.5316	18.9223
4.5276	18.8193
4.5237	18.6457
4.5197	18.4741
4.5158	18.3313
4.5119	18.1538
4.5080	17.9318
4.5040	17.7700
4.5001	17.6289
4.4962	17.4975
4.4923	17.4135
4.4884	17.3852
4.4846	17.3671
4.4807	17.3461
4.4768	17.3493
4.4730	17.3286
4.4691	17.3457
4.4652	17.4140
4.4614	17.5092
4.4576	17.6494
4.4537	17.8300
4.4499	17.9748
4.4461	18.1115
4.4423	18.2348
4.4385	18.3454
4.4347	18.4501
4.4309	18.5456
4.4271	18.6542
4.4233	18.8010
4.4196	18.9379
4.4158	19.0644
4.4120	19.2055
4.4083	19.3771
4.4045	19.5397
4.4008	19.7163
4.3971	19.8769
4.3934	20.0388
4.3896	20.2363
4.3859	20.4421
4.3822	20.6210
4.3785	20.7926
4.3748	21.0070
4.3711	21.2089
4.3674	21.3726
4.3638	21.5461
4.3601	21.7141
4.3564	21.8779
4.3528	22.0468
4.3491	22.1743
4.3455	22.3166
4.3418	22.4282
4.3382	22.5104
4.3346	22.6086
4.3310	22.6721
4.3273	22.7402
4.3237	22.8049
4.3201	22.8217
4.3165	22.8329
4.3129	22.8281
4.3094	22.7978
4.3058	22.7704
4.3022	22.7448
4.2986	22.7114
4.2951	22.6530
4.2915	22.6379
4.2880	22.6269
4.2844	22.5585
4.2809	22.2914
4.2774	21.9143
4.2738	21.8832
4.2703	22.2460
4.2668	22.6674
4.2633	23.0246
4.2598	23.3530
4.2563	23.5881
4.2528	23.6652
4.2493	23.6542
4.2458	23.6275
4.2424	23.5773
4.2389	23.5563
4.2354	23.5971
4.2320	23.6462
4.2285	23.6992
4.2251	23.8002
4.2216	23.9376
4.2182	24.0424
4.2148	24.1279
4.2113	24.2885
4.2079	24.4057
4.2045	24.4399
4.2011	24.4943
4.1977	24.5451
4.1943	24.5710
4.1909	24.6330
4.1875	24.7033
4.1841	24.7476
4.1808	24.8305
4.1774	24.8959
4.1740	24.9741
4.1707	25.0388
4.1673	25.0854
4.1640	25.1367
4.1606	25.2023
4.1573	25.2617
4.1540	25.3124
4.1506	25.3408
4.1473	25.3647
4.1440	25.4228
4.1407	25.4889
4.1374	25.5510
4.1341	25.6103
4.1308	25.6354
4.1275	25.6623
4.1242	25.7165
4.1209	25.7944
4.1177	25.8698
4.1144	25.9052
4.1111	25.9763
4.1079	26.0402
4.1046	26.0768
4.1014	26.1198
4.0981	26.1567
4.0949	26.2045
4.0917	26.2497
4.0884	26.3393
4.0852	26.3837
4.0820	26.4023
4.0788	26.3867
4.0756	26.4040
4.0724	26.4553
4.0692	26.4645
4.0660	26.4774
4.0628	26.4933
4.0596	26.4682
4.0565	26.4755
4.0533	26.4887
4.0501	26.4814
4.0470	26.4489
4.0438	26.4494
4.0406	26.4692
4.0375	26.4311
4.0344	26.3920
4.0312	26.3754
4.0281	26.3659
4.0250	26.3217
4.0218	26.3144
4.0187	26.3051
4.0156	26.3078
4.0125	26.3051
4.0094	26.2874
4.0063	26.2939
4.0032	26.2802
4.0001	26.2458
3.9970	26.2597
3.9940	26.2829
3.9909	26.2802
3.9878	26.3058
3.9847	26.2866
3.9817	26.2573
3.9786	26.2707
3.9756	26.2874
3.9725	26.3068
3.9695	26.3178
3.9665	26.3134
3.9634	26.3134
3.9604	26.3124
3.9574	26.3326
3.9544	26.3495
3.9513	26.3300
3.9483	26.3105
3.9453	26.3430
3.9423	26.3726
3.9393	26.3688
3.9363	26.3412
3.9333	26.3207
3.9304	26.3254
3.9274	26.3115
3.9244	26.3051
3.9214	26.2700
3.9185	26.1843
3.9155	26.1603
3.9126	26.1723
3.9096	26.0998
3.9067	26.0651
3.9037	26.0422
3.9008	25.9882
3.8979	25.9553
3.8949	25.9033
3.8920	25.8168
3.8891	25.7590
3.8862	25.7284
3.8833	25.6533
3.8804	25.5634
3.8775	25.5231
3.8746	25.4997
3.8717	25.4235
3.8688	25.3754
3.8659	25.3605
3.8630	25.3051
3.8601	25.2465
3.8573	25.2040
3.8544	25.1572
3.8515	25.1093
3.8487	25.0654
3.8458	25.0583
3.8430	25.0125
3.8401	24.9531
3.8373	24.9203
3.8344	24.8975
3.8316	24.8871
3.8288	24.8217
3.8259	24.7746
3.8231	24.7441
3.8203	24.6876
3.8175	24.6557
3.8147	24.5934
3.8119	24.5771
3.8091	24.5251
3.8063	24.4425
3.8035	24.3954
3.8007	24.3798
3.7979	24.3159
3.7951	24.2525
3.7924	24.1830
3.7896	24.1161
3.7868	24.0483
3.7841	23.9682
3.7813	23.8932
3.7785	23.8212
3.7758	23.7717
3.7730	23.6953
3.7703	23.6037
3.7676	23.5466
3.7648	23.4863
3.7621	23.4169
3.7594	23.3251
3.7566	23.2441
3.7539	23.1569
3.7512	23.0519
3.7485	22.9921
3.7458	22.9809
3.7431	22.9069
3.7404	22.8049
3.7377	22.7663
3.7350	22.7407
3.7323	22.6769
3.7296	22.6308
3.7269	22.5842
3.7242	22.5141
3.7216	22.4438
3.7189	22.3881
3.7162	22.3215
3.7136	22.2368
3.7109	22.2187
3.7083	22.2094
3.7056	22.1564
3.7030	22.1198
3.7003	22.0826
3.6977	22.0463
3.6950	22.0100
3.6924	21.9504
3.6898	21.8832
3.6872	21.8471
3.6845	21.8019
3.6819	21.7490
3.6793	21.6950
3.6767	21.6447
3.6741	21.5742
3.6715	21.5104
3.6689	21.4689
3.6663	21.4050
3.6637	21.3518
3.6611	21.3098
3.6585	21.2363
3.6560	21.1479
3.6534	21.0626
3.6508	21.0092
3.6482	20.9555
3.6457	20.8923
3.6431	20.8264
3.6406	20.7590
3.6380	20.6855
3.6355	20.6103
3.6329	20.5573
3.6304	20.4919
3.6278	20.4233
3.6253	20.3332
3.6227	20.2425
3.6202	20.1660
3.6177	20.1484
3.6152	20.0910
3.6127	19.9885
3.6101	19.8818
3.6076	19.8371
3.6051	19.7653
3.6026	19.6450
3.6001	19.5349
3.5976	19.4733
3.5951	19.4309
3.5926	19.3586
3.5901	19.2575
3.5876	19.1948
3.5852	19.1262
3.5827	19.0588
3.5802	18.9956
3.5777	18.9003
3.5753	18.8168
3.5728	18.7172
3.5704	18.6477
3.5679	18.6110
3.5654	18.5332
3.5630	18.4228
3.5605	18.3313
3.5581	18.2517
3.5557	18.1779
3.5532	18.0551
3.5508	17.9406
3.5484	17.8759
3.5459	17.8068
3.5435	17.7270
3.5411	17.6103
3.5387	17.4782
3.5363	17.4018
3.5338	17.3127
3.5314	17.1874
3.5290	17.0759
3.5266	16.9725
3.5242	16.8588
3.5218	16.7074
3.5195	16.5241
3.5171	16.3933
3.5147	16.1980
3.5123	15.9301
3.5099	15.7177
3.5075	15.5693
3.5052	15.5000
3.5028	15.4712
3.5004	15.4511
3.4981	15.4165
3.4957	15.3947
3.4934	15.3752
3.4910	15.3120
3.4887	15.2270
3.4863	15.1818
3.4840	15.1218
3.4816	15.0274
3.4793	14.9431
3.4770	14.8403
3.4746	14.7534
3.4723	14.7165
3.4700	14.6540
3.4677	14.5627
3.4653	14.5131
3.4630	14.4629
3.4607	14.3884
3.4584	14.2927
3.4561	14.1894
3.4538	14.0735
3.4515	13.9824
3.4492	13.9038
3.4469	13.8144
3.4446	13.7417
3.4423	13.6469
3.4400	13.5332
3.4378	13.4445
3.4355	13.3261
3.4332	13.1938
3.4309	13.0151
3.4287	12.8344
3.4264	12.6596
3.4241	12.5600
3.4219	12.5075
3.4196	12.4199
3.4174	12.3603
3.4151	12.3105
3.4129	12.3134
3.4106	12.2988
3.4084	12.2622
3.4061	12.2321
3.4039	12.2339
3.4017	12.2197
3.3994	12.1899
3.3972	12.1792
3.3950	12.2058
3.3928	12.2031
3.3906	12.1648
3.3883	12.1418
3.3861	12.0715
3.3839	12.0207
3.3817	12.0346
3.3795	11.9983
3.3773	11.9463
3.3751	11.8977
3.3729	11.8506
3.3707	11.8718
3.3685	11.8718
3.3663	11.8056
3.3641	11.7758
3.3620	11.7500
3.3598	11.7138
3.3576	11.6838
3.3554	11.6609
3.3533	11.6394
3.3511	11.6024
3.3489	11.5664
3.3468	11.5337
3.3446	11.5134
3.3425	11.4533
3.3403	11.4131
3.3382	11.3845
3.3360	11.3174
3.3339	11.2563
3.3317	11.2136
3.3296	11.1482
3.3274	11.0656
3.3253	11.0009
3.3232	10.9455
3.3210	10.8838
3.3189	10.8303
3.3168	10.7712
3.3147	10.7168
3.3126	10.6599
3.3104	10.5864
3.3083	10.5224
3.3062	10.4487
3.3041	10.3598
3.3020	10.3152
3.2999	10.2829
3.2978	10.1980
3.2957	10.1267
3.2936	10.0737
3.2915	9.9819
3.2894	9.9023
3.2874	9.8530
3.2853	9.7837
3.2832	9.6994
3.2811	9.6179
3.2790	9.5674
3.2770	9.5088
3.2749	9.4643
3.2728	9.3825
3.2708	9.2988
3.2687	9.2473
3.2666	9.1887
3.2646	9.1260
3.2625	9.0681
3.2605	9.0095
3.2584	8.9536
3.2564	8.9009
3.2543	8.8308
3.2523	8.7588
3.2503	8.7107
3.2482	8.6665
3.2462	8.6089
3.2442	8.5698
3.2421	8.5166
3.2401	8.4699
3.2381	8.4062
3.2361	8.3139
3.2340	8.2673
3.2320	8.2422
3.2300	8.1977
3.2280	8.1396
3.2260	8.0915
3.2240	8.0383
3.2220	7.9714
3.2200	7.9255
3.2180	7.9025
3.2160	7.8296
