Name:  Very dark grayish brown loam
Type:  Soils
Class:  Mollisol
Subclass:  Cryoboroll
Particle Size:  see additional information
Sample No.:  87P4453
Owner:  JHU
Wavelength range:  All
Origin:  Wayne Co., Utah, via USDA Soil Conservation service.

Description:  Very dark grayish brown loam, (loamy-skeletal, mixed, typic).  
Physiography: plateaus or tablelands.




Measurement:  Directional (10 degree) hemispherical reflectance
First Column:  X
Second Column:  Y
X Units:  Wavelength (micrometers)
Y Units:  Reflectance (percent)
First X Value:  14.0112
Last X Value:  0.4000
Number of X Values:  2844
Additional information:  87P4453a.txt

14.0112	1.4458
13.9734	1.4604
13.9359	1.4492
13.8985	1.4380
13.8614	1.4341
13.8244	1.4463
13.7876	1.4622
13.7511	1.4866
13.7147	1.4963
13.6785	1.4980
13.6425	1.5010
13.6067	1.5266
13.5711	1.5559
13.5356	1.5723
13.5004	1.5796
13.4653	1.5859
13.4304	1.5747
13.3957	1.5618
13.3612	1.5574
13.3269	1.5696
13.2927	1.5769
13.2587	1.5815
13.2249	1.6028
13.1912	1.6228
13.1577	1.6294
13.1244	1.6348
13.0913	1.6313
13.0583	1.6267
13.0255	1.6230
12.9929	1.6392
12.9604	1.6753
12.9281	1.7092
12.8959	1.7371
12.8639	1.7581
12.8321	1.7595
12.8004	1.7522
12.7688	1.7363
12.7375	1.7100
12.7063	1.6775
12.6752	1.6509
12.6443	1.6401
12.6135	1.6523
12.5829	1.6702
12.5524	1.6912
12.5221	1.6987
12.4919	1.6838
12.4619	1.6528
12.4320	1.6208
12.4023	1.6035
12.3727	1.6062
12.3432	1.6140
12.3139	1.6311
12.2847	1.6558
12.2557	1.6914
12.2268	1.7371
12.1980	1.7937
12.1694	1.8520
12.1409	1.9036
12.1125	1.9438
12.0843	1.9785
12.0562	2.0049
12.0282	2.0364
12.0003	2.0747
11.9726	2.1143
11.9450	2.1423
11.9176	2.1660
11.8903	2.1963
11.8631	2.2339
11.8360	2.2659
11.8090	2.2978
11.7822	2.3393
11.7555	2.3889
11.7289	2.4246
11.7024	2.4480
11.6760	2.4641
11.6498	2.4751
11.6237	2.4824
11.5977	2.4844
11.5718	2.4910
11.5460	2.5149
11.5203	2.5305
11.4948	2.5400
11.4694	2.5464
11.4440	2.5513
11.4188	2.5640
11.3937	2.5796
11.3688	2.5915
11.3439	2.6172
11.3191	2.6401
11.2944	2.6540
11.2699	2.6577
11.2455	2.6616
11.2211	2.6694
11.1969	2.6716
11.1727	2.6704
11.1487	2.6804
11.1248	2.6941
11.1010	2.7046
11.0773	2.7117
11.0536	2.7258
11.0301	2.7390
11.0067	2.7414
10.9834	2.7339
10.9602	2.7263
10.9370	2.7161
10.9140	2.7031
10.8911	2.6916
10.8682	2.6853
10.8455	2.6811
10.8229	2.6787
10.8003	2.6770
10.7779	2.6816
10.7555	2.6804
10.7332	2.6777
10.7111	2.6750
10.6890	2.6802
10.6670	2.6973
10.6451	2.7175
10.6233	2.7383
10.6015	2.7646
10.5799	2.7830
10.5584	2.7993
10.5369	2.8142
10.5155	2.8374
10.4942	2.8650
10.4730	2.8906
10.4519	2.9141
10.4309	2.9521
10.4099	2.9946
10.3891	3.0356
10.3683	3.0674
10.3476	3.0957
10.3270	3.1296
10.3065	3.1755
10.2860	3.2256
10.2656	3.2849
10.2454	3.3481
10.2251	3.4160
10.2050	3.4790
10.1850	3.5388
10.1650	3.6023
10.1451	3.6753
10.1253	3.7436
10.1056	3.8169
10.0859	3.8972
10.0663	3.9905
10.0468	4.0915
10.0274	4.1836
10.0080	4.2590
9.9887	4.3369
9.9695	4.4053
9.9504	4.4658
9.9313	4.5163
9.9123	4.5676
9.8934	4.6089
9.8746	4.6311
9.8558	4.6453
9.8371	4.6680
9.8185	4.6902
9.7999	4.7248
9.7814	4.7861
9.7630	4.8747
9.7447	4.9682
9.7264	5.0661
9.7082	5.1675
9.6900	5.2551
9.6719	5.3235
9.6539	5.3928
9.6360	5.4597
9.6181	5.5181
9.6003	5.5727
9.5825	5.6260
9.5649	5.6553
9.5472	5.6628
9.5297	5.6489
9.5122	5.6213
9.4948	5.5835
9.4774	5.5359
9.4601	5.4905
9.4429	5.4485
9.4257	5.3931
9.4086	5.3384
9.3916	5.2822
9.3746	5.2302
9.3577	5.1882
9.3408	5.1467
9.3240	5.1099
9.3073	5.0710
9.2906	5.0171
9.2740	4.9460
9.2574	4.8628
9.2409	4.7676
9.2245	4.6743
9.2081	4.5954
9.1918	4.5354
9.1755	4.4868
9.1593	4.4341
9.1431	4.3862
9.1270	4.3415
9.1110	4.2881
9.0950	4.2390
9.0791	4.1943
9.0632	4.1509
9.0474	4.1028
9.0316	4.0527
9.0159	4.0207
9.0003	3.9968
8.9847	3.9895
8.9691	3.9961
8.9536	4.0093
8.9382	4.0173
8.9228	4.0029
8.9075	3.9819
8.8922	3.9714
8.8770	3.9514
8.8618	3.9360
8.8467	3.9172
8.8316	3.8996
8.8166	3.8757
8.8016	3.8381
8.7867	3.8049
8.7718	3.7861
8.7570	3.7615
8.7422	3.7349
8.7275	3.6987
8.7129	3.6599
8.6982	3.6079
8.6837	3.5293
8.6692	3.4270
8.6547	3.3301
8.6403	3.2580
8.6259	3.2173
8.6116	3.2244
8.5973	3.2886
8.5830	3.3660
8.5688	3.4304
8.5547	3.4665
8.5406	3.4817
8.5266	3.4758
8.5126	3.4575
8.4986	3.4475
8.4847	3.4482
8.4708	3.4387
8.4570	3.4297
8.4432	3.4246
8.4295	3.4250
8.4158	3.4260
8.4022	3.4248
8.3886	3.4192
8.3750	3.4148
8.3615	3.4082
8.3481	3.3970
8.3347	3.3872
8.3213	3.3889
8.3079	3.3843
8.2946	3.3613
8.2814	3.3323
8.2682	3.3096
8.2550	3.2788
8.2419	3.2336
8.2288	3.1875
8.2158	3.1484
8.2028	3.0940
8.1898	3.0254
8.1769	2.9558
8.1640	2.8823
8.1512	2.7937
8.1384	2.6985
8.1256	2.6072
8.1129	2.5266
8.1002	2.4443
8.0876	2.3696
8.0750	2.3049
8.0624	2.2436
8.0499	2.1816
8.0374	2.1164
8.0250	2.0559
8.0126	2.0144
8.0002	1.9822
7.9879	1.9578
7.9756	1.9341
7.9634	1.9080
7.9512	1.8733
7.9390	1.8328
7.9268	1.8032
7.9147	1.7825
7.9027	1.7612
7.8906	1.7429
7.8786	1.7239
7.8667	1.7012
7.8548	1.6772
7.8429	1.6609
7.8310	1.6536
7.8192	1.6479
7.8075	1.6443
7.7957	1.6455
7.7840	1.6494
7.7723	1.6558
7.7607	1.6587
7.7491	1.6558
7.7375	1.6506
7.7260	1.6489
7.7145	1.6460
7.7031	1.6440
7.6916	1.6523
7.6802	1.6628
7.6689	1.6636
7.6575	1.6572
7.6462	1.6431
7.6350	1.6282
7.6238	1.6177
7.6126	1.6094
7.6014	1.6096
7.5903	1.6150
7.5792	1.6199
7.5681	1.6260
7.5571	1.6218
7.5461	1.6167
7.5351	1.6150
7.5242	1.6089
7.5133	1.6016
7.5024	1.5984
7.4916	1.5967
7.4807	1.5972
7.4700	1.5967
7.4592	1.5935
7.4485	1.5933
7.4378	1.5998
7.4272	1.6028
7.4165	1.6116
7.4059	1.6255
7.3954	1.6345
7.3848	1.6367
7.3743	1.6299
7.3639	1.6213
7.3534	1.6165
7.3430	1.6030
7.3326	1.5986
7.3223	1.6013
7.3119	1.6047
7.3016	1.6064
7.2914	1.6055
7.2811	1.6025
7.2709	1.5994
7.2607	1.5925
7.2506	1.5940
7.2404	1.5896
7.2303	1.5874
7.2203	1.5920
7.2102	1.6016
7.2002	1.6118
7.1902	1.6223
7.1803	1.6362
7.1703	1.6504
7.1604	1.6528
7.1506	1.6536
7.1407	1.6553
7.1309	1.6592
7.1211	1.6553
7.1113	1.6465
7.1016	1.6401
7.0919	1.6414
7.0822	1.6445
7.0725	1.6467
7.0629	1.6477
7.0533	1.6499
7.0437	1.6492
7.0341	1.6543
7.0246	1.6631
7.0151	1.6792
7.0056	1.6975
6.9962	1.7078
6.9867	1.7087
6.9773	1.7129
6.9679	1.7222
6.9586	1.7436
6.9493	1.7688
6.9400	1.7961
6.9307	1.8271
6.9214	1.8486
6.9122	1.8606
6.9030	1.8716
6.8938	1.8748
6.8847	1.8791
6.8755	1.8926
6.8664	1.9131
6.8573	1.9387
6.8483	1.9705
6.8393	2.0088
6.8302	2.0454
6.8213	2.0737
6.8123	2.1018
6.8034	2.1404
6.7944	2.1870
6.7855	2.2383
6.7767	2.2971
6.7678	2.3557
6.7590	2.4065
6.7502	2.4468
6.7414	2.4736
6.7327	2.4893
6.7239	2.5037
6.7152	2.5156
6.7065	2.5183
6.6979	2.5144
6.6892	2.5088
6.6806	2.5100
6.6720	2.5107
6.6634	2.4910
6.6549	2.4592
6.6464	2.4319
6.6378	2.4018
6.6294	2.3721
6.6209	2.3486
6.6124	2.3403
6.6040	2.3315
6.5956	2.3018
6.5872	2.2664
6.5789	2.2410
6.5705	2.2222
6.5622	2.2078
6.5539	2.2021
6.5456	2.2031
6.5374	2.2046
6.5292	2.1985
6.5209	2.1789
6.5128	2.1489
6.5046	2.1228
6.4964	2.1033
6.4883	2.0942
6.4802	2.0974
6.4721	2.1094
6.4640	2.1133
6.4560	2.1091
6.4480	2.1064
6.4399	2.0959
6.4320	2.0774
6.4240	2.0618
6.4160	2.0547
6.4081	2.0518
6.4002	2.0393
6.3923	2.0300
6.3844	2.0354
6.3766	2.0320
6.3687	2.0168
6.3609	2.0024
6.3531	1.9932
6.3454	1.9822
6.3376	1.9631
6.3299	1.9419
6.3221	1.9287
6.3144	1.9175
6.3068	1.9021
6.2991	1.8835
6.2914	1.8628
6.2838	1.8437
6.2762	1.8230
6.2686	1.7974
6.2611	1.7766
6.2535	1.7664
6.2460	1.7573
6.2385	1.7380
6.2310	1.7173
6.2235	1.7029
6.2160	1.6841
6.2086	1.6611
6.2011	1.6399
6.1937	1.6265
6.1863	1.6143
6.1790	1.5996
6.1716	1.5906
6.1643	1.5886
6.1570	1.5894
6.1496	1.5859
6.1424	1.5747
6.1351	1.5608
6.1278	1.5459
6.1206	1.5383
6.1134	1.5344
6.1062	1.5349
6.0990	1.5403
6.0918	1.5435
6.0847	1.5430
6.0776	1.5386
6.0704	1.5205
6.0633	1.5068
6.0563	1.5051
6.0492	1.5129
6.0421	1.5293
6.0351	1.5476
6.0281	1.5693
6.0211	1.5913
6.0141	1.5964
6.0071	1.6011
6.0002	1.6182
5.9932	1.6423
5.9863	1.6689
5.9794	1.6926
5.9725	1.7190
5.9657	1.7532
5.9588	1.7786
5.9520	1.7988
5.9451	1.8259
5.9383	1.8606
5.9315	1.9048
5.9247	1.9595
5.9180	2.0117
5.9112	2.0684
5.9045	2.1191
5.8978	2.1619
5.8911	2.2107
5.8844	2.2673
5.8777	2.3364
5.8711	2.4170
5.8644	2.4905
5.8578	2.5632
5.8512	2.6294
5.8446	2.6763
5.8380	2.7170
5.8314	2.7622
5.8249	2.8137
5.8184	2.8787
5.8118	2.9531
5.8053	3.0300
5.7988	3.1030
5.7923	3.1658
5.7859	3.2129
5.7794	3.2595
5.7730	3.3147
5.7666	3.3791
5.7602	3.4536
5.7538	3.5371
5.7474	3.6311
5.7410	3.7312
5.7347	3.8201
5.7283	3.9084
5.7220	4.0066
5.7157	4.1055
5.7094	4.2014
5.7031	4.3030
5.6969	4.4099
5.6906	4.5156
5.6844	4.6174
5.6782	4.7102
5.6719	4.7939
5.6657	4.8660
5.6596	4.9177
5.6534	4.9629
5.6472	5.0146
5.6411	5.0788
5.6349	5.1526
5.6288	5.2292
5.6227	5.3039
5.6166	5.3786
5.6106	5.4492
5.6045	5.5190
5.5984	5.5911
5.5924	5.6645
5.5864	5.7378
5.5804	5.8120
5.5744	5.8882
5.5684	5.9731
5.5624	6.0669
5.5564	6.1621
5.5505	6.2544
5.5445	6.3391
5.5386	6.4184
5.5327	6.5002
5.5268	6.5879
5.5209	6.6741
5.5151	6.7544
5.5092	6.8296
5.5033	6.9065
5.4975	6.9753
5.4917	7.0390
5.4859	7.1040
5.4801	7.1609
5.4743	7.2141
5.4685	7.2683
5.4628	7.3227
5.4570	7.3830
5.4513	7.4431
5.4455	7.5007
5.4398	7.5307
5.4341	7.5290
5.4284	7.5232
5.4228	7.5141
5.4171	7.4951
5.4114	7.4690
5.4058	7.4407
5.4002	7.4077
5.3945	7.3511
5.3889	7.2827
5.3833	7.2226
5.3778	7.1699
5.3722	7.1191
5.3666	7.0725
5.3611	7.0437
5.3555	7.0403
5.3500	7.0500
5.3445	7.0713
5.3390	7.1067
5.3335	7.1528
5.3280	7.2016
5.3225	7.2478
5.3171	7.2956
5.3116	7.3481
5.3062	7.3943
5.3008	7.4394
5.2954	7.4907
5.2900	7.5495
5.2846	7.6206
5.2792	7.7026
5.2738	7.7898
5.2684	7.8816
5.2631	7.9763
5.2578	8.0740
5.2524	8.1733
5.2471	8.2805
5.2418	8.3979
5.2365	8.5205
5.2312	8.6379
5.2260	8.7485
5.2207	8.8489
5.2154	8.9314
5.2102	9.0005
5.2050	9.0654
5.1998	9.1255
5.1945	9.1794
5.1893	9.2229
5.1842	9.2629
5.1790	9.3020
5.1738	9.3320
5.1686	9.3574
5.1635	9.3781
5.1584	9.4001
5.1532	9.4240
5.1481	9.4490
5.1430	9.4804
5.1379	9.5180
5.1328	9.5549
5.1277	9.5927
5.1227	9.6313
5.1176	9.6689
5.1126	9.7009
5.1075	9.7287
5.1025	9.7514
5.0975	9.7661
5.0925	9.7739
5.0875	9.7785
5.0825	9.7881
5.0775	9.7990
5.0726	9.8113
5.0676	9.8310
5.0627	9.8584
5.0577	9.8874
5.0528	9.9162
5.0479	9.9453
5.0430	9.9802
5.0380	10.0071
5.0332	10.0205
5.0283	10.0305
5.0234	10.0429
5.0185	10.0564
5.0137	10.0752
5.0088	10.1059
5.0040	10.1504
4.9992	10.1968
4.9944	10.2402
4.9896	10.2910
4.9848	10.3484
4.9800	10.4111
4.9752	10.4839
4.9704	10.5644
4.9657	10.6516
4.9609	10.7348
4.9562	10.8076
4.9514	10.8769
4.9467	10.9377
4.9420	10.9880
4.9373	11.0315
4.9326	11.0710
4.9279	11.1133
4.9232	11.1631
4.9186	11.2263
4.9139	11.3091
4.9092	11.4011
4.9046	11.5000
4.9000	11.5967
4.8953	11.6833
4.8907	11.7610
4.8861	11.8349
4.8815	11.9028
4.8769	11.9636
4.8723	12.0168
4.8678	12.0695
4.8632	12.1194
4.8586	12.1579
4.8541	12.1926
4.8495	12.2341
4.8450	12.2746
4.8405	12.3142
4.8360	12.3476
4.8315	12.3774
4.8270	12.4101
4.8225	12.4358
4.8180	12.4546
4.8135	12.4785
4.8090	12.4995
4.8046	12.5190
4.8001	12.5368
4.7957	12.5578
4.7913	12.5891
4.7868	12.6208
4.7824	12.6445
4.7780	12.6689
4.7736	12.6877
4.7692	12.7050
4.7648	12.7265
4.7605	12.7505
4.7561	12.7736
4.7517	12.7968
4.7474	12.8164
4.7431	12.8337
4.7387	12.8464
4.7344	12.8571
4.7301	12.8737
4.7258	12.8903
4.7215	12.9052
4.7172	12.9257
4.7129	12.9489
4.7086	12.9687
4.7043	12.9814
4.7000	12.9863
4.6958	12.9970
4.6915	13.0085
4.6873	13.0183
4.6831	13.0354
4.6788	13.0656
4.6746	13.1023
4.6704	13.1379
4.6662	13.1728
4.6620	13.2131
4.6578	13.2519
4.6536	13.2871
4.6495	13.3205
4.6453	13.3596
4.6411	13.3986
4.6370	13.4336
4.6328	13.4687
4.6287	13.5090
4.6246	13.5561
4.6205	13.6047
4.6163	13.6482
4.6122	13.6921
4.6081	13.7312
4.6040	13.7683
4.6000	13.8081
4.5959	13.8476
4.5918	13.8860
4.5877	13.9243
4.5837	13.9609
4.5796	13.9943
4.5756	14.0258
4.5716	14.0603
4.5675	14.1008
4.5635	14.1408
4.5595	14.1797
4.5555	14.2212
4.5515	14.2551
4.5475	14.2778
4.5435	14.2964
4.5395	14.3151
4.5356	14.3420
4.5316	14.3693
4.5276	14.3964
4.5237	14.4248
4.5197	14.4394
4.5158	14.4465
4.5119	14.4536
4.5080	14.4636
4.5040	14.4751
4.5001	14.4870
4.4962	14.5075
4.4923	14.5263
4.4884	14.5407
4.4846	14.5637
4.4807	14.5864
4.4768	14.6079
4.4730	14.6318
4.4691	14.6599
4.4652	14.6967
4.4614	14.7309
4.4576	14.7644
4.4537	14.8010
4.4499	14.8371
4.4461	14.8725
4.4423	14.9055
4.4385	14.9392
4.4347	14.9746
4.4309	15.0044
4.4271	15.0305
4.4233	15.0637
4.4196	15.0964
4.4158	15.1252
4.4120	15.1611
4.4083	15.2024
4.4045	15.2412
4.4008	15.2763
4.3971	15.3127
4.3934	15.3449
4.3896	15.3623
4.3859	15.3835
4.3822	15.4204
4.3785	15.4577
4.3748	15.4936
4.3711	15.5300
4.3674	15.5698
4.3638	15.6020
4.3601	15.6259
4.3564	15.6555
4.3528	15.6867
4.3491	15.7155
4.3455	15.7429
4.3418	15.7695
4.3382	15.7973
4.3346	15.8122
4.3310	15.8139
4.3273	15.8178
4.3237	15.8244
4.3201	15.8359
4.3165	15.8569
4.3129	15.8791
4.3094	15.8942
4.3058	15.9008
4.3022	15.9087
4.2986	15.9228
4.2951	15.9294
4.2915	15.9296
4.2880	15.9392
4.2844	15.9511
4.2809	15.9582
4.2774	15.9692
4.2738	15.9921
4.2703	16.0200
4.2668	16.0376
4.2633	16.0517
4.2598	16.0752
4.2563	16.0979
4.2528	16.1091
4.2493	16.1135
4.2458	16.1086
4.2424	16.1003
4.2389	16.0971
4.2354	16.1020
4.2320	16.1135
4.2285	16.1311
4.2251	16.1489
4.2216	16.1657
4.2182	16.1740
4.2148	16.1860
4.2113	16.2033
4.2079	16.2150
4.2045	16.2309
4.2011	16.2470
4.1977	16.2546
4.1943	16.2617
4.1909	16.2651
4.1875	16.2670
4.1841	16.2710
4.1808	16.2700
4.1774	16.2768
4.1740	16.2844
4.1707	16.2866
4.1673	16.2912
4.1640	16.2856
4.1606	16.2702
4.1573	16.2590
4.1540	16.2456
4.1506	16.2331
4.1473	16.2275
4.1440	16.2258
4.1407	16.2326
4.1374	16.2365
4.1341	16.2302
4.1308	16.2199
4.1275	16.2148
4.1242	16.2133
4.1209	16.2128
4.1177	16.2104
4.1144	16.2063
4.1111	16.1955
4.1079	16.1728
4.1046	16.1442
4.1014	16.1237
4.0981	16.1115
4.0949	16.1047
4.0917	16.0998
4.0884	16.0925
4.0852	16.0830
4.0820	16.0727
4.0788	16.0605
4.0756	16.0490
4.0724	16.0358
4.0692	16.0239
4.0660	16.0136
4.0628	15.9980
4.0596	15.9773
4.0565	15.9594
4.0533	15.9499
4.0501	15.9401
4.0470	15.9165
4.0438	15.8940
4.0406	15.8742
4.0375	15.8535
4.0344	15.8357
4.0312	15.8252
4.0281	15.8225
4.0250	15.8125
4.0218	15.7922
4.0187	15.7707
4.0156	15.7468
4.0125	15.7258
4.0094	15.7070
4.0063	15.6887
4.0032	15.6726
4.0001	15.6557
3.9970	15.6325
3.9940	15.6074
3.9909	15.5842
3.9878	15.5634
3.9847	15.5500
3.9817	15.5388
3.9786	15.5244
3.9756	15.5031
3.9725	15.4729
3.9695	15.4462
3.9665	15.4245
3.9634	15.4113
3.9604	15.4091
3.9574	15.4055
3.9544	15.3967
3.9513	15.3820
3.9483	15.3652
3.9453	15.3454
3.9423	15.3237
3.9393	15.3049
3.9363	15.2795
3.9333	15.2412
3.9304	15.2016
3.9274	15.1648
3.9244	15.1281
3.9214	15.0893
3.9185	15.0610
3.9155	15.0446
3.9126	15.0317
3.9096	15.0139
3.9067	14.9948
3.9037	14.9760
3.9008	14.9448
3.8979	14.9069
3.8949	14.8762
3.8920	14.8488
3.8891	14.8213
3.8862	14.7959
3.8833	14.7758
3.8804	14.7570
3.8775	14.7282
3.8746	14.6980
3.8717	14.6638
3.8688	14.6259
3.8659	14.5859
3.8630	14.5517
3.8601	14.5224
3.8573	14.4909
3.8544	14.4607
3.8515	14.4248
3.8487	14.3833
3.8458	14.3452
3.8430	14.3093
3.8401	14.2744
3.8373	14.2395
3.8344	14.2014
3.8316	14.1618
3.8288	14.1145
3.8259	14.0715
3.8231	14.0332
3.8203	13.9924
3.8175	13.9497
3.8147	13.9123
3.8119	13.8720
3.8091	13.8283
3.8063	13.7924
3.8035	13.7636
3.8007	13.7280
3.7979	13.6845
3.7951	13.6411
3.7924	13.5969
3.7896	13.5412
3.7868	13.4860
3.7841	13.4392
3.7813	13.3974
3.7785	13.3525
3.7758	13.3069
3.7730	13.2651
3.7703	13.2151
3.7676	13.1591
3.7648	13.1074
3.7621	13.0612
3.7594	13.0229
3.7566	12.9826
3.7539	12.9406
3.7512	12.9062
3.7485	12.8679
3.7458	12.8210
3.7431	12.7678
3.7404	12.7192
3.7377	12.6694
3.7350	12.6157
3.7323	12.5727
3.7296	12.5412
3.7269	12.5005
3.7242	12.4511
3.7216	12.3969
3.7189	12.3357
3.7162	12.2773
3.7136	12.2346
3.7109	12.2019
3.7083	12.1667
3.7056	12.1233
3.7030	12.0749
3.7003	12.0193
3.6977	11.9585
3.6950	11.9087
3.6924	11.8703
3.6898	11.8362
3.6872	11.8005
3.6845	11.7595
3.6819	11.7041
3.6793	11.6382
3.6767	11.5771
3.6741	11.5217
3.6715	11.4721
3.6689	11.4297
3.6663	11.3943
3.6637	11.3596
3.6611	11.3166
3.6585	11.2705
3.6560	11.2295
3.6534	11.1877
3.6508	11.1430
3.6482	11.0962
3.6457	11.0559
3.6431	11.0144
3.6406	10.9675
3.6380	10.9211
3.6355	10.8728
3.6329	10.8186
3.6304	10.7693
3.6278	10.7260
3.6253	10.6816
3.6227	10.6333
3.6202	10.5903
3.6177	10.5517
3.6152	10.5071
3.6127	10.4592
3.6101	10.4197
3.6076	10.3774
3.6051	10.3254
3.6026	10.2646
3.6001	10.2082
3.5976	10.1496
3.5951	10.0840
3.5926	10.0251
3.5901	9.9826
3.5876	9.9438
3.5852	9.9057
3.5827	9.8667
3.5802	9.8183
3.5777	9.7480
3.5753	9.6684
3.5728	9.5993
3.5704	9.5405
3.5679	9.4819
3.5654	9.4287
3.5630	9.3799
3.5605	9.3237
3.5581	9.2561
3.5557	9.1897
3.5532	9.1279
3.5508	9.0674
3.5484	9.0010
3.5459	8.9304
3.5435	8.8620
3.5411	8.7947
3.5387	8.7329
3.5363	8.6728
3.5338	8.6125
3.5314	8.5488
3.5290	8.4680
3.5266	8.3699
3.5242	8.2583
3.5218	8.1306
3.5195	7.9961
3.5171	7.8457
3.5147	7.6814
3.5123	7.5110
3.5099	7.3554
3.5075	7.2383
3.5052	7.1636
3.5028	7.1335
3.5004	7.1443
3.4981	7.1706
3.4957	7.1929
3.4934	7.1968
3.4910	7.1824
3.4887	7.1589
3.4863	7.1301
3.4840	7.0993
3.4816	7.0654
3.4793	7.0283
3.4770	6.9922
3.4746	6.9521
3.4723	6.9075
3.4700	6.8725
3.4677	6.8454
3.4653	6.8164
3.4630	6.7822
3.4607	6.7370
3.4584	6.6885
3.4561	6.6438
3.4538	6.5930
3.4515	6.5408
3.4492	6.4817
3.4469	6.4126
3.4446	6.3457
3.4423	6.2773
3.4400	6.2075
3.4378	6.1394
3.4355	6.0637
3.4332	5.9795
3.4309	5.8786
3.4287	5.7666
3.4264	5.6753
3.4241	5.6101
3.4219	5.5657
3.4196	5.5390
3.4174	5.5351
3.4151	5.5412
3.4129	5.5378
3.4106	5.5373
3.4084	5.5495
3.4061	5.5581
3.4039	5.5625
3.4017	5.5666
3.3994	5.5754
3.3972	5.5884
3.3950	5.6074
3.3928	5.6304
3.3906	5.6484
3.3883	5.6584
3.3861	5.6619
3.3839	5.6670
3.3817	5.6714
3.3795	5.6709
3.3773	5.6714
3.3751	5.6653
3.3729	5.6575
3.3707	5.6633
3.3685	5.6765
3.3663	5.6960
3.3641	5.7185
3.3620	5.7322
3.3598	5.7366
3.3576	5.7363
3.3554	5.7419
3.3533	5.7493
3.3511	5.7400
3.3489	5.7297
3.3468	5.7180
3.3446	5.7012
3.3425	5.6843
3.3403	5.6789
3.3382	5.6846
3.3360	5.6850
3.3339	5.6753
3.3317	5.6702
3.3296	5.6560
3.3274	5.6352
3.3253	5.6113
3.3232	5.5788
3.3210	5.5430
3.3189	5.5124
3.3168	5.4873
3.3147	5.4665
3.3126	5.4433
3.3104	5.4324
3.3083	5.4150
3.3062	5.3760
3.3041	5.3352
3.3020	5.3039
3.2999	5.2746
3.2978	5.2407
3.2957	5.2029
3.2936	5.1780
3.2915	5.1477
3.2894	5.1125
3.2874	5.0806
3.2853	5.0535
3.2832	5.0256
3.2811	4.9917
3.2790	4.9548
3.2770	4.9314
3.2749	4.9060
3.2728	4.8713
3.2708	4.8310
3.2687	4.8003
3.2666	4.7734
3.2646	4.7417
3.2625	4.7087
3.2605	4.6912
3.2584	4.6709
3.2564	4.6348
3.2543	4.5998
3.2523	4.5725
3.2503	4.5430
3.2482	4.5112
3.2462	4.4890
3.2442	4.4783
3.2421	4.4636
3.2401	4.4375
3.2381	4.4018
3.2361	4.3625
3.2340	4.3269
3.2320	4.2995
3.2300	4.2803
3.2280	4.2712
3.2260	4.2651
3.2240	4.2524
3.2220	4.2307
3.2200	4.2058
3.2180	4.1853
3.2160	4.1702
3.2140	4.1504
3.2120	4.1272
3.2100	4.0962
3.2080	4.0547
3.2060	4.0161
3.2040	3.9839
3.2021	3.9575
