Name:  Brown to dark brown loamy sand
Type:  Soils
Class:  Utisol
Subclass:  Hapludult
Particle Size:  see additional information
Sample No.:  87P707
Owner:  JHU
Wavelength range:  All
Origin:  Dorchester Co., Md. via USDA Soil Conservation service.

Description:  Parent material: alluvium from mixed material.  
Physiography: upland slope in coastal plain, cropland.  Brown to dark 
brown loamy sand (sandy, siliceous, mesic psammentic).



Measurement:  Directional (10 degree) hemispherical reflectance
First Column:  X
Second Column:  Y
X Units:  Wavelength (micrometers)
Y Units:  Reflectance (percent)
First X Value:  14.0112
Last X Value:  0.4000
Number of X Values:  2844
Additional information:  87P707a.txt

14.0112	2.5574
13.9734	2.5566
13.9359	2.6238
13.8985	2.6909
13.8614	2.6955
13.8244	2.7244
13.7876	2.7991
13.7511	2.7651
13.7147	2.8069
13.6785	2.9153
13.6425	3.0098
13.6067	2.9639
13.5711	2.9397
13.5356	2.9668
13.5004	3.0759
13.4653	3.1118
13.4304	3.1226
13.3957	3.1457
13.3612	3.1826
13.3269	3.2212
13.2927	3.3152
13.2587	3.3635
13.2249	3.4416
13.1912	3.4883
13.1577	3.5085
13.1244	3.5466
13.0913	3.6421
13.0583	3.6785
13.0255	3.7593
12.9929	3.8830
12.9604	4.1130
12.9281	4.3967
12.8959	4.7139
12.8639	5.0320
12.8321	5.2595
12.8004	5.3122
12.7688	5.1721
12.7375	4.8242
12.7063	4.3965
12.6752	3.9714
12.6443	3.6699
12.6135	3.6811
12.5829	3.9446
12.5524	4.2280
12.5221	4.4350
12.4919	4.3874
12.4619	4.1814
12.4320	3.7859
12.4023	3.1113
12.3727	2.2322
12.3432	1.5435
12.3139	1.1836
12.2847	1.1162
12.2557	1.1648
12.2268	1.2705
12.1980	1.3599
12.1694	1.4656
12.1409	1.5618
12.1125	1.6516
12.0843	1.7651
12.0562	1.9209
12.0282	2.0215
12.0003	2.0972
11.9726	2.1472
11.9450	2.2358
11.9176	2.3179
11.8903	2.3933
11.8631	2.4438
11.8360	2.5444
11.8090	2.6186
11.7822	2.6929
11.7555	2.7495
11.7289	2.8142
11.7024	2.8608
11.6760	2.9123
11.6498	2.9612
11.6237	3.0229
11.5977	3.0749
11.5718	3.1326
11.5460	3.1611
11.5203	3.1916
11.4948	3.1650
11.4694	3.1804
11.4440	3.2505
11.4188	3.3047
11.3937	3.3210
11.3688	3.3433
11.3439	3.3586
11.3191	3.4194
11.2944	3.4236
11.2699	3.4582
11.2455	3.5054
11.2211	3.5193
11.1969	3.5305
11.1727	3.5522
11.1487	3.5554
11.1248	3.5727
11.1010	3.5810
11.0773	3.6028
11.0536	3.5972
11.0301	3.6086
11.0067	3.5901
10.9834	3.5954
10.9602	3.6030
10.9370	3.6150
10.9140	3.6272
10.8911	3.6601
10.8682	3.6765
10.8455	3.7070
10.8229	3.7783
10.8003	3.7961
10.7779	3.7817
10.7555	3.8452
10.7332	3.8994
10.7111	3.9121
10.6890	3.9060
10.6670	3.9131
10.6451	3.9443
10.6233	3.9902
10.6015	4.0251
10.5799	4.0593
10.5584	4.0791
10.5369	4.1196
10.5155	4.1658
10.4942	4.2139
10.4730	4.2451
10.4519	4.2742
10.4309	4.2947
10.4099	4.3188
10.3891	4.3254
10.3683	4.3999
10.3476	4.4292
10.3270	4.4609
10.3065	4.4641
10.2860	4.4861
10.2656	4.5256
10.2454	4.5652
10.2251	4.5906
10.2050	4.6496
10.1850	4.7334
10.1650	4.7986
10.1451	4.7939
10.1253	4.8188
10.1056	4.8196
10.0859	4.8970
10.0663	4.9988
10.0468	5.0796
10.0274	5.0964
10.0080	5.1628
9.9887	5.2276
9.9695	5.3418
9.9504	5.4067
9.9313	5.4553
9.9123	5.5473
9.8934	5.6621
9.8746	5.7344
9.8558	5.7995
9.8371	5.8362
9.8185	5.8918
9.7999	5.9599
9.7814	6.0879
9.7630	6.1721
9.7447	6.2431
9.7264	6.3760
9.7082	6.5420
9.6900	6.7077
9.6719	6.8498
9.6539	7.0115
9.6360	7.1543
9.6181	7.2571
9.6003	7.3523
9.5825	7.5085
9.5649	7.7453
9.5472	7.9787
9.5297	8.2102
9.5122	8.4192
9.4948	8.6667
9.4774	9.0005
9.4601	9.4233
9.4429	9.8984
9.4257	10.4885
9.4086	11.2644
9.3916	12.1516
9.3746	13.0000
9.3577	13.8327
9.3408	14.5520
9.3240	15.1250
9.3073	15.6198
9.2906	15.8925
9.2740	15.9919
9.2574	16.0537
9.2409	16.1335
9.2245	16.1765
9.2081	16.1925
9.1918	16.2092
9.1755	16.1872
9.1593	16.2016
9.1431	16.1840
9.1270	16.1584
9.1110	16.1374
9.0950	16.1352
9.0791	16.1096
9.0632	16.0197
9.0474	15.9760
9.0316	15.9631
9.0159	15.8816
9.0003	15.8144
8.9847	15.7898
8.9691	15.8220
8.9536	15.8724
8.9382	15.9177
8.9228	15.9597
8.9075	16.0434
8.8922	16.0949
8.8770	16.1193
8.8618	16.0847
8.8467	16.0554
8.8316	16.0368
8.8166	15.9311
8.8016	15.7736
8.7867	15.6665
8.7718	15.5168
8.7570	15.3806
8.7422	15.2360
8.7275	15.0900
8.7129	14.9123
8.6982	14.5986
8.6837	14.1364
8.6692	13.4777
8.6547	12.4536
8.6403	11.3642
8.6259	10.9477
8.6116	11.5559
8.5973	12.7207
8.5830	13.8220
8.5688	14.5949
8.5547	15.1372
8.5406	15.4880
8.5266	15.7619
8.5126	15.9821
8.4986	16.0666
8.4847	16.1482
8.4708	16.2546
8.4570	16.3508
8.4432	16.4604
8.4295	16.5515
8.4158	16.6545
8.4022	16.7656
8.3886	16.8869
8.3750	16.9843
8.3615	17.1408
8.3481	17.3575
8.3347	17.5534
8.3213	17.7607
8.3079	18.0356
8.2946	18.2902
8.2814	18.5222
8.2682	18.7534
8.2550	18.9907
8.2419	19.2170
8.2288	19.3811
8.2158	19.4404
8.2028	19.4042
8.1898	19.2448
8.1769	18.9980
8.1640	18.5261
8.1512	17.8369
8.1384	17.0222
8.1256	16.1424
8.1129	15.2295
8.1002	14.3354
8.0876	13.4802
8.0750	12.6596
8.0624	11.8803
8.0499	11.1247
8.0374	10.4316
8.0250	9.8481
8.0126	9.3003
8.0002	8.7192
7.9879	8.1614
7.9756	7.6625
7.9634	7.1477
7.9512	6.5945
7.9390	6.0713
7.9268	5.5701
7.9147	5.1208
7.9027	4.7268
7.8906	4.3542
7.8786	4.0530
7.8667	3.7910
7.8548	3.5356
7.8429	3.3196
7.8310	3.1340
7.8192	2.9397
7.8075	2.8093
7.7957	2.7253
7.7840	2.6287
7.7723	2.5183
7.7607	2.4050
7.7491	2.2651
7.7375	2.1665
7.7260	2.0510
7.7145	1.9797
7.7031	1.9211
7.6916	1.8152
7.6802	1.7417
7.6689	1.6882
7.6575	1.5947
7.6462	1.5212
7.6350	1.4722
7.6238	1.4036
7.6126	1.3342
7.6014	1.2881
7.5903	1.2500
7.5792	1.2253
7.5681	1.2031
7.5571	1.1472
7.5461	1.1001
7.5351	1.0781
7.5242	1.0395
7.5133	1.0207
7.5024	1.0071
7.4916	1.0039
7.4807	0.9612
7.4700	0.9263
7.4592	0.9299
7.4485	0.9446
7.4378	0.9243
7.4272	0.9023
7.4165	0.9087
7.4059	0.9041
7.3954	0.8713
7.3848	0.8469
7.3743	0.8520
7.3639	0.8677
7.3534	0.8562
7.3430	0.8267
7.3326	0.8064
7.3223	0.8474
7.3119	0.8437
7.3016	0.8220
7.2914	0.8115
7.2811	0.8149
7.2709	0.7874
7.2607	0.7944
7.2506	0.8126
7.2404	0.8191
7.2303	0.8430
7.2203	0.8577
7.2102	0.8357
7.2002	0.8188
7.1902	0.8389
7.1803	0.8628
7.1703	0.8567
7.1604	0.8643
7.1506	0.8752
7.1407	0.8589
7.1309	0.8396
7.1211	0.8516
7.1113	0.8638
7.1016	0.8706
7.0919	0.8821
7.0822	0.8774
7.0725	0.9055
7.0629	0.9302
7.0533	0.8870
7.0437	0.8772
7.0341	0.9041
7.0246	0.9126
7.0151	0.9143
7.0056	0.9531
6.9962	0.9687
6.9867	0.9573
6.9773	0.9587
6.9679	0.9448
6.9586	0.9631
6.9493	1.0039
6.9400	1.0156
6.9307	1.0151
6.9214	1.0171
6.9122	1.0356
6.9030	1.0264
6.8938	1.0281
6.8847	1.0471
6.8755	1.0486
6.8664	1.0142
6.8573	1.0049
6.8483	1.0154
6.8393	1.0442
6.8302	1.0610
6.8213	1.0696
6.8123	1.0735
6.8034	1.1157
6.7944	1.1111
6.7855	1.0994
6.7767	1.1174
6.7678	1.1345
6.7590	1.1511
6.7502	1.1858
6.7414	1.1667
6.7327	1.1357
6.7239	1.1294
6.7152	1.1460
6.7065	1.1474
6.6979	1.1741
6.6892	1.1489
6.6806	1.1577
6.6720	1.2217
6.6634	1.2283
6.6549	1.2141
6.6464	1.2141
6.6378	1.1741
6.6294	1.2119
6.6209	1.2627
6.6124	1.2673
6.6040	1.2607
6.5956	1.2307
6.5872	1.2229
6.5789	1.2187
6.5705	1.1897
6.5622	1.2122
6.5539	1.2266
6.5456	1.2361
6.5374	1.2559
6.5292	1.2593
6.5209	1.2327
6.5128	1.2700
6.5046	1.2978
6.4964	1.2493
6.4883	1.2412
6.4802	1.3252
6.4721	1.3853
6.4640	1.4089
6.4560	1.4214
6.4480	1.4451
6.4399	1.4153
6.4320	1.4089
6.4240	1.3892
6.4160	1.3320
6.4081	1.3508
6.4002	1.4116
6.3923	1.4094
6.3844	1.3796
6.3766	1.3757
6.3687	1.3660
6.3609	1.3870
6.3531	1.3601
6.3454	1.2681
6.3376	1.3198
6.3299	1.3733
6.3221	1.3442
6.3144	1.3208
6.3068	1.3142
6.2991	1.3079
6.2914	1.2924
6.2838	1.2913
6.2762	1.3137
6.2686	1.3303
6.2611	1.3054
6.2535	1.2910
6.2460	1.2751
6.2385	1.2498
6.2310	1.2319
6.2235	1.2322
6.2160	1.2219
6.2086	1.2329
6.2011	1.2732
6.1937	1.2656
6.1863	1.2297
6.1790	1.2561
6.1716	1.2715
6.1643	1.2368
6.1570	1.2270
6.1496	1.2795
6.1424	1.2949
6.1351	1.2869
6.1278	1.3027
6.1206	1.3079
6.1134	1.2937
6.1062	1.3267
6.0990	1.3777
6.0918	1.3921
6.0847	1.3967
6.0776	1.3694
6.0704	1.3872
6.0633	1.3965
6.0563	1.3569
6.0492	1.3166
6.0421	1.3765
6.0351	1.4368
6.0281	1.4646
6.0211	1.4712
6.0141	1.4470
6.0071	1.4595
6.0002	1.4883
5.9932	1.4707
5.9863	1.4341
5.9794	1.4133
5.9725	1.4170
5.9657	1.4397
5.9588	1.4746
5.9520	1.4658
5.9451	1.4587
5.9383	1.4370
5.9315	1.4817
5.9247	1.5466
5.9180	1.5664
5.9112	1.5935
5.9045	1.5981
5.8978	1.5659
5.8911	1.6099
5.8844	1.6238
5.8777	1.6533
5.8711	1.7468
5.8644	1.7800
5.8578	1.8157
5.8512	1.8689
5.8446	1.8865
5.8380	1.9172
5.8314	1.9631
5.8249	1.9497
5.8184	1.9785
5.8118	2.0803
5.8053	2.1396
5.7988	2.1709
5.7923	2.2148
5.7859	2.2583
5.7794	2.2854
5.7730	2.2768
5.7666	2.2539
5.7602	2.3647
5.7538	2.4641
5.7474	2.4902
5.7410	2.5527
5.7347	2.5937
5.7283	2.6096
5.7220	2.6492
5.7157	2.6877
5.7094	2.7085
5.7031	2.7642
5.6969	2.7871
5.6906	2.7544
5.6844	2.7371
5.6782	2.6792
5.6719	2.6279
5.6657	2.5945
5.6596	2.5210
5.6534	2.4690
5.6472	2.4187
5.6411	2.3586
5.6349	2.3818
5.6288	2.3840
5.6227	2.3647
5.6166	2.3516
5.6106	2.3367
5.6045	2.3433
5.5984	2.3569
5.5924	2.3406
5.5864	2.3418
5.5804	2.3293
5.5744	2.3589
5.5684	2.4209
5.5624	2.4265
5.5564	2.4248
5.5505	2.4534
5.5445	2.4846
5.5386	2.5154
5.5327	2.5420
5.5268	2.5706
5.5209	2.5950
5.5151	2.6304
5.5092	2.6876
5.5033	2.7324
5.4975	2.7737
5.4917	2.7974
5.4859	2.8345
5.4801	2.8660
5.4743	2.8821
5.4685	2.9060
5.4628	2.9343
5.4570	2.9905
5.4513	3.0139
5.4455	3.0142
5.4398	2.9993
5.4341	2.9597
5.4284	2.9165
5.4228	2.8418
5.4171	2.8186
5.4114	2.8196
5.4058	2.7632
5.4002	2.6995
5.3945	2.6658
5.3889	2.6284
5.3833	2.5720
5.3778	2.5288
5.3722	2.4978
5.3666	2.4573
5.3611	2.4333
5.3555	2.4082
5.3500	2.3892
5.3445	2.4121
5.3390	2.4324
5.3335	2.4585
5.3280	2.4780
5.3225	2.4929
5.3171	2.5093
5.3116	2.5010
5.3062	2.5122
5.3008	2.5322
5.2954	2.5422
5.2900	2.5432
5.2846	2.5876
5.2792	2.6260
5.2738	2.6428
5.2684	2.6694
5.2631	2.7165
5.2578	2.7502
5.2524	2.7888
5.2471	2.8559
5.2418	2.9177
5.2365	2.9624
5.2312	3.0117
5.2260	3.0684
5.2207	3.1453
5.2154	3.2217
5.2102	3.2729
5.2050	3.3017
5.1998	3.3174
5.1945	3.3462
5.1893	3.3767
5.1842	3.3992
5.1790	3.4133
5.1738	3.4036
5.1686	3.3896
5.1635	3.3977
5.1584	3.4224
5.1532	3.4104
5.1481	3.3933
5.1430	3.3945
5.1379	3.4194
5.1328	3.4319
5.1277	3.4174
5.1227	3.4343
5.1176	3.4448
5.1126	3.4717
5.1075	3.4853
5.1025	3.4690
5.0975	3.4509
5.0925	3.4480
5.0875	3.4280
5.0825	3.3921
5.0775	3.3938
5.0726	3.4111
5.0676	3.4119
5.0627	3.3784
5.0577	3.3728
5.0528	3.3848
5.0479	3.4001
5.0430	3.4231
5.0380	3.4182
5.0332	3.4172
5.0283	3.4104
5.0234	3.3960
5.0185	3.4074
5.0137	3.4228
5.0088	3.4216
5.0040	3.4385
4.9992	3.4597
4.9944	3.4766
4.9896	3.5073
4.9848	3.5559
4.9800	3.5891
4.9752	3.6194
4.9704	3.6621
4.9657	3.7212
4.9609	3.7795
4.9562	3.8642
4.9514	3.9731
4.9467	4.0259
4.9420	4.0395
4.9373	4.0830
4.9326	4.1509
4.9279	4.2402
4.9232	4.3420
4.9186	4.4514
4.9139	4.6033
4.9092	4.8176
4.9046	5.1001
4.9000	5.4216
4.8953	5.8276
4.8907	6.2651
4.8861	6.7202
4.8815	7.1858
4.8769	7.6162
4.8723	8.0466
4.8678	8.4853
4.8632	8.8845
4.8586	9.2754
4.8541	9.6528
4.8495	9.9995
4.8450	10.3330
4.8405	10.6377
4.8360	10.9441
4.8315	11.2365
4.8270	11.4973
4.8225	11.7573
4.8180	12.0222
4.8135	12.2695
4.8090	12.5366
4.8046	12.7812
4.8001	12.9987
4.7957	13.2041
4.7913	13.3903
4.7868	13.5893
4.7824	13.8093
4.7780	14.0398
4.7736	14.2299
4.7692	14.3923
4.7648	14.5766
4.7605	14.7492
4.7561	14.8986
4.7517	15.0207
4.7474	15.1594
4.7431	15.2912
4.7387	15.3596
4.7344	15.4091
4.7301	15.4738
4.7258	15.5195
4.7215	15.5036
4.7172	15.4419
4.7129	15.3046
4.7086	15.0954
4.7043	14.8086
4.7000	14.4760
4.6958	14.0981
4.6915	13.7031
4.6873	13.3852
4.6831	13.2470
4.6788	13.2863
4.6746	13.4951
4.6704	13.8469
4.6662	14.2922
4.6620	14.6974
4.6578	15.0617
4.6536	15.4318
4.6495	15.8317
4.6453	16.2385
4.6411	16.6435
4.6370	17.0341
4.6328	17.3889
4.6287	17.7009
4.6246	17.9809
4.6205	18.2478
4.6163	18.4677
4.6122	18.6777
4.6081	18.8293
4.6040	18.9533
4.6000	19.0798
4.5959	19.2231
4.5918	19.3166
4.5877	19.3547
4.5837	19.4157
4.5796	19.4631
4.5756	19.4582
4.5716	19.4365
4.5675	19.3803
4.5635	19.3083
4.5595	19.2014
4.5555	19.0502
4.5515	18.8452
4.5475	18.5463
4.5435	18.2111
4.5395	17.8620
4.5356	17.4704
4.5316	17.0461
4.5276	16.6049
4.5237	16.1482
4.5197	15.6301
4.5158	15.0788
4.5119	14.5351
4.5080	13.9956
4.5040	13.5307
4.5001	13.1416
4.4962	12.7878
4.4923	12.5503
4.4884	12.3950
4.4846	12.2656
4.4807	12.1472
4.4768	12.0114
4.4730	11.8899
4.4691	11.8371
4.4652	11.8640
4.4614	11.9568
4.4576	12.1609
4.4537	12.4135
4.4499	12.6455
4.4461	12.8537
4.4423	13.0188
4.4385	13.1479
4.4347	13.2824
4.4309	13.4648
4.4271	13.6545
4.4233	13.8422
4.4196	14.0688
4.4158	14.3012
4.4120	14.5041
4.4083	14.7170
4.4045	14.9831
4.4008	15.2751
4.3971	15.5649
4.3934	15.8774
4.3896	16.2182
4.3859	16.5507
4.3822	16.8642
4.3785	17.1933
4.3748	17.5542
4.3711	17.9116
4.3674	18.2407
4.3638	18.5373
4.3601	18.8242
4.3564	19.1335
4.3528	19.3818
4.3491	19.5942
4.3455	19.7807
4.3418	19.9448
4.3382	20.0678
4.3346	20.1323
4.3310	20.2106
4.3273	20.2674
4.3237	20.2597
4.3201	20.2697
4.3165	20.2106
4.3129	20.0693
4.3094	19.9519
4.3058	19.8469
4.3022	19.7668
4.2986	19.6706
4.2951	19.5588
4.2915	19.5041
4.2880	19.4799
4.2844	19.5019
4.2809	19.5666
4.2774	19.6347
4.2738	19.7128
4.2703	19.8356
4.2668	19.9968
4.2633	20.1694
4.2598	20.3475
4.2563	20.5326
4.2528	20.6088
4.2493	20.5749
4.2458	20.5148
4.2424	20.4340
4.2389	20.3624
4.2354	20.3632
4.2320	20.4062
4.2285	20.4816
4.2251	20.5610
4.2216	20.6538
4.2182	20.7692
4.2148	20.8732
4.2113	20.9628
4.2079	21.0036
4.2045	21.0234
4.2011	21.0322
4.1977	21.0683
4.1943	21.1664
4.1909	21.2490
4.1875	21.3142
4.1841	21.3879
4.1808	21.4956
4.1774	21.6210
4.1740	21.7141
4.1707	21.7880
4.1673	21.8535
4.1640	21.9265
4.1606	22.0175
4.1573	22.1059
4.1540	22.1518
4.1506	22.2125
4.1473	22.2978
4.1440	22.3693
4.1407	22.4211
4.1374	22.4992
4.1341	22.5886
4.1308	22.6762
4.1275	22.7600
4.1242	22.8425
4.1209	22.9164
4.1177	23.0125
4.1144	23.1203
4.1111	23.2402
4.1079	23.3571
4.1046	23.4360
4.1014	23.5012
4.0981	23.6245
4.0949	23.7194
4.0917	23.7929
4.0884	23.8757
4.0852	23.9245
4.0820	23.9892
4.0788	24.0500
4.0756	24.1124
4.0724	24.1769
4.0692	24.2153
4.0660	24.2307
4.0628	24.2372
4.0596	24.2194
4.0565	24.1948
4.0533	24.1794
4.0501	24.1889
4.0470	24.1738
4.0438	24.1175
4.0406	24.0847
4.0375	24.0566
4.0344	24.0019
4.0312	23.9699
4.0281	23.9621
4.0250	23.9128
4.0218	23.8705
4.0187	23.8447
4.0156	23.8588
4.0125	23.8381
4.0094	23.8061
4.0063	23.7978
4.0032	23.7525
4.0001	23.7570
3.9970	23.7851
3.9940	23.8237
3.9909	23.8615
3.9878	23.9033
3.9847	23.9294
3.9817	23.9672
3.9786	24.0143
3.9756	24.0170
3.9725	24.0380
3.9695	24.0600
3.9665	24.1303
3.9634	24.2231
3.9604	24.2817
3.9574	24.2971
3.9544	24.3493
3.9513	24.4374
3.9483	24.5029
3.9453	24.5174
3.9423	24.5090
3.9393	24.5107
3.9363	24.5702
3.9333	24.6226
3.9304	24.6340
3.9274	24.6271
3.9244	24.6218
3.9214	24.6323
3.9185	24.5934
3.9155	24.5666
3.9126	24.5744
3.9096	24.5595
3.9067	24.5090
3.9037	24.4684
3.9008	24.4470
3.8979	24.3818
3.8949	24.2690
3.8920	24.2280
3.8891	24.1889
3.8862	24.1293
3.8833	24.0446
3.8804	23.9665
3.8775	23.8991
3.8746	23.8454
3.8717	23.7961
3.8688	23.7325
3.8659	23.6857
3.8630	23.6618
3.8601	23.6162
3.8573	23.5732
3.8544	23.5143
3.8515	23.4540
3.8487	23.4672
3.8458	23.4648
3.8430	23.4276
3.8401	23.4081
3.8373	23.4089
3.8344	23.4318
3.8316	23.4269
3.8288	23.3669
3.8259	23.3915
3.8231	23.4252
3.8203	23.4089
3.8175	23.3957
3.8147	23.3825
3.8119	23.3801
3.8091	23.3544
3.8063	23.3359
3.8035	23.3422
3.8007	23.3290
3.7979	23.2524
3.7951	23.1957
3.7924	23.1642
3.7896	23.0998
3.7868	23.0204
3.7841	22.9711
3.7813	22.9228
3.7785	22.8691
3.7758	22.7993
3.7730	22.6889
3.7703	22.6022
3.7676	22.5642
3.7648	22.4976
3.7621	22.4030
3.7594	22.3117
3.7566	22.2514
3.7539	22.1789
3.7512	22.1313
3.7485	22.0632
3.7458	21.9958
3.7431	21.9633
3.7404	21.9350
3.7377	21.8896
3.7350	21.8420
3.7323	21.7912
3.7296	21.7758
3.7269	21.7578
3.7242	21.7348
3.7216	21.7453
3.7189	21.7612
3.7162	21.7751
3.7136	21.8120
3.7109	21.8026
3.7083	21.7973
3.7056	21.8364
3.7030	21.8649
3.7003	21.8510
3.6977	21.8426
3.6950	21.8526
3.6924	21.8496
3.6898	21.9003
3.6872	21.9340
3.6845	21.9062
3.6819	21.9072
3.6793	21.9479
3.6767	21.9409
3.6741	21.8896
3.6715	21.8710
3.6689	21.8679
3.6663	21.8456
3.6637	21.8126
3.6611	21.7980
3.6585	21.8059
3.6560	21.7629
3.6534	21.7001
3.6508	21.6760
3.6482	21.6249
3.6457	21.5651
3.6431	21.5507
3.6406	21.5068
3.6380	21.4750
3.6355	21.4252
3.6329	21.3373
3.6304	21.3149
3.6278	21.2729
3.6253	21.1606
3.6227	21.1101
3.6202	21.0690
3.6177	21.0092
3.6152	20.9299
3.6127	20.8740
3.6101	20.8373
3.6076	20.7729
3.6051	20.7023
3.6026	20.6528
3.6001	20.6013
3.5976	20.5502
3.5951	20.4960
3.5926	20.4348
3.5901	20.3835
3.5876	20.3488
3.5852	20.2719
3.5827	20.1850
3.5802	20.1208
3.5777	20.0480
3.5753	19.9876
3.5728	19.9707
3.5704	19.9124
3.5679	19.8303
3.5654	19.7919
3.5630	19.7441
3.5605	19.6416
3.5581	19.5617
3.5557	19.5246
3.5532	19.4631
3.5508	19.3981
3.5484	19.3674
3.5459	19.3015
3.5435	19.2089
3.5411	19.0979
3.5387	18.9995
3.5363	18.8991
3.5338	18.8181
3.5314	18.7697
3.5290	18.6950
3.5266	18.5475
3.5242	18.4340
3.5218	18.3073
3.5195	18.0952
3.5171	17.8791
3.5147	17.6586
3.5123	17.3767
3.5099	17.0700
3.5075	16.8671
3.5052	16.8175
3.5028	16.8002
3.5004	16.7910
3.4981	16.8164
3.4957	16.8708
3.4934	16.8757
3.4910	16.8620
3.4887	16.8513
3.4863	16.8046
3.4840	16.7463
3.4816	16.6933
3.4793	16.6208
3.4770	16.5810
3.4746	16.5666
3.4723	16.5300
3.4700	16.4599
3.4677	16.3732
3.4653	16.2890
3.4630	16.1975
3.4607	16.1369
3.4584	16.0705
3.4561	15.9636
3.4538	15.8960
3.4515	15.8469
3.4492	15.7375
3.4469	15.5979
3.4446	15.5092
3.4423	15.4170
3.4400	15.2680
3.4378	15.1275
3.4355	14.9895
3.4332	14.7978
3.4309	14.5822
3.4287	14.3469
3.4264	14.1587
3.4241	14.0571
3.4219	13.9992
3.4196	13.9375
3.4174	13.8813
3.4151	13.8803
3.4129	13.8794
3.4106	13.8896
3.4084	13.9150
3.4061	13.9209
3.4039	13.9558
3.4017	13.9738
3.3994	13.9978
3.3972	14.0156
3.3950	14.0339
3.3928	14.0354
3.3906	14.0630
3.3883	14.0783
3.3861	14.0605
3.3839	14.0363
3.3817	14.0014
3.3795	13.9670
3.3773	13.9582
3.3751	13.9592
3.3729	13.9587
3.3707	13.9694
3.3685	13.9829
3.3663	13.9563
3.3641	13.9543
3.3620	13.9492
3.3598	13.9521
3.3576	13.9577
3.3554	13.9358
3.3533	13.9528
3.3511	13.9968
3.3489	13.9699
3.3468	13.9052
3.3446	13.8332
3.3425	13.8432
3.3403	13.8598
3.3382	13.8191
3.3360	13.7287
3.3339	13.6709
3.3317	13.6640
3.3296	13.6450
3.3274	13.5752
3.3253	13.5183
3.3232	13.4904
3.3210	13.4692
3.3189	13.3864
3.3168	13.3466
3.3147	13.3222
3.3126	13.2304
3.3104	13.1496
3.3083	13.1003
3.3062	13.0393
3.3041	12.9983
3.3020	12.9338
3.2999	12.8862
3.2978	12.8134
3.2957	12.7370
3.2936	12.6762
3.2915	12.6272
3.2894	12.5593
3.2874	12.5036
3.2853	12.4448
3.2832	12.3720
3.2811	12.3134
3.2790	12.2580
3.2770	12.1999
3.2749	12.1323
3.2728	12.0705
3.2708	12.0078
3.2687	11.9529
3.2666	11.9341
3.2646	11.8554
3.2625	11.7712
3.2605	11.7351
3.2584	11.6911
3.2564	11.6457
3.2543	11.5967
3.2523	11.5266
3.2503	11.4389
3.2482	11.3896
3.2462	11.3659
3.2442	11.3071
3.2421	11.2807
3.2401	11.2177
