Name:  Dark yellowish brown micaceous loam
Type:  Soils
Class:  Inceptisol
Subclass:  Dystrochrept
Particle Size:  see additional information
Sample No.:  88P2535
Owner:  JHU
Wavelength range:  All
Origin: Howard Co., Md. via USDA Soil Conservation service.

Description:  The parent material is schist and phyllite.  Dark 
yellowish brown micaceous loam (coarse-loamy, micaceous, mesic typic), 
from piedmonts.



Measurement:  Directional (10 degree) hemispherical reflectance
First Column:  X
Second Column:  Y
X Units:  Wavelength (micrometers)
Y Units:  Reflectance (percent)
First X Value:  14.0112
Last X Value:  0.4000
Number of X Values:  2844
Additional information:  88P2535a.txt

14.0112	1.6401
13.9734	1.6606
13.9359	1.6929
13.8985	1.7112
13.8614	1.7312
13.8244	1.7722
13.7876	1.8201
13.7511	1.8376
13.7147	1.8447
13.6785	1.8662
13.6425	1.8831
13.6067	1.8752
13.5711	1.8701
13.5356	1.8706
13.5004	1.8562
13.4653	1.8425
13.4304	1.8442
13.3957	1.8567
13.3612	1.8538
13.3269	1.8457
13.2927	1.8603
13.2587	1.8599
13.2249	1.8433
13.1912	1.8469
13.1577	1.8789
13.1244	1.9111
13.0913	1.9319
13.0583	1.9582
13.0255	1.9929
12.9929	2.0181
12.9604	2.0637
12.9281	2.1472
12.8959	2.2402
12.8639	2.3076
12.8321	2.3391
12.8004	2.3240
12.7688	2.2627
12.7375	2.1692
12.7063	2.0867
12.6752	2.0435
12.6443	2.0334
12.6135	2.0579
12.5829	2.1006
12.5524	2.1394
12.5221	2.1594
12.4919	2.1379
12.4619	2.0759
12.4320	1.9687
12.4023	1.8462
12.3727	1.7327
12.3432	1.6477
12.3139	1.6057
12.2847	1.6211
12.2557	1.6802
12.2268	1.7617
12.1980	1.8474
12.1694	1.9338
12.1409	2.0002
12.1125	2.0447
12.0843	2.0803
12.0562	2.1289
12.0282	2.1819
12.0003	2.2419
11.9726	2.3098
11.9450	2.3718
11.9176	2.4204
11.8903	2.4670
11.8631	2.5242
11.8360	2.5906
11.8090	2.6623
11.7822	2.7427
11.7555	2.8210
11.7289	2.8862
11.7024	2.9355
11.6760	2.9585
11.6498	2.9629
11.6237	2.9700
11.5977	2.9961
11.5718	3.0295
11.5460	3.0598
11.5203	3.0810
11.4948	3.0896
11.4694	3.0813
11.4440	3.0627
11.4188	3.0613
11.3937	3.0669
11.3688	3.0740
11.3439	3.0872
11.3191	3.0945
11.2944	3.0998
11.2699	3.1179
11.2455	3.1413
11.2211	3.1672
11.1969	3.1797
11.1727	3.1736
11.1487	3.1606
11.1248	3.1409
11.1010	3.1235
11.0773	3.1155
11.0536	3.1111
11.0301	3.1064
11.0067	3.0869
10.9834	3.0525
10.9602	3.0171
10.9370	2.9822
10.9140	2.9419
10.8911	2.9016
10.8682	2.8745
10.8455	2.8616
10.8229	2.8491
10.8003	2.8318
10.7779	2.8184
10.7555	2.8186
10.7332	2.8281
10.7111	2.8520
10.6890	2.8928
10.6670	2.9299
10.6451	2.9497
10.6233	2.9553
10.6015	2.9560
10.5799	2.9836
10.5584	3.0366
10.5369	3.1072
10.5155	3.1885
10.4942	3.2693
10.4730	3.3430
10.4519	3.4075
10.4309	3.4604
10.4099	3.5229
10.3891	3.5847
10.3683	3.6433
10.3476	3.7019
10.3270	3.7602
10.3065	3.8091
10.2860	3.8594
10.2657	3.9116
10.2454	3.9614
10.2252	4.0117
10.2050	4.0705
10.1850	4.1301
10.1650	4.1902
10.1451	4.2353
10.1253	4.2854
10.1056	4.3367
10.0859	4.3982
10.0663	4.4817
10.0468	4.5867
10.0274	4.7080
10.0080	4.8393
9.9887	4.9668
9.9695	5.0945
9.9504	5.2082
9.9313	5.2993
9.9123	5.3608
9.8934	5.4001
9.8746	5.4119
9.8558	5.3972
9.8371	5.3777
9.8185	5.3830
9.7999	5.4236
9.7814	5.5029
9.7630	5.6316
9.7447	5.8130
9.7264	6.0320
9.7082	6.2641
9.6900	6.4873
9.6719	6.6938
9.6539	6.8662
9.6360	6.9953
9.6181	7.0835
9.6003	7.1406
9.5825	7.1814
9.5649	7.2002
9.5472	7.1943
9.5297	7.1721
9.5122	7.1401
9.4948	7.1118
9.4774	7.0981
9.4601	7.1184
9.4429	7.1848
9.4257	7.2920
9.4086	7.4336
9.3916	7.6067
9.3746	7.7825
9.3577	7.9367
9.3408	8.0591
9.3240	8.1470
9.3073	8.2004
9.2906	8.2141
9.2740	8.1860
9.2574	8.1238
9.2409	8.0478
9.2245	7.9599
9.2081	7.8594
9.1918	7.7522
9.1755	7.6321
9.1593	7.5051
9.1431	7.3594
9.1270	7.1858
9.1110	7.0073
9.0950	6.8247
9.0791	6.6250
9.0632	6.4031
9.0474	6.1721
9.0316	5.9636
9.0159	5.7981
9.0003	5.7065
8.9847	5.7038
8.9691	5.7761
8.9536	5.8918
8.9382	6.0315
8.9228	6.1645
8.9075	6.2619
8.8922	6.3364
8.8770	6.4043
8.8618	6.4414
8.8467	6.4275
8.8316	6.3703
8.8166	6.3098
8.8016	6.2424
8.7867	6.1460
8.7718	6.0371
8.7570	5.9299
8.7422	5.8149
8.7275	5.6853
8.7129	5.5405
8.6982	5.3909
8.6837	5.1973
8.6692	4.9307
8.6547	4.6421
8.6403	4.4297
8.6259	4.3459
8.6116	4.4055
8.5973	4.5918
8.5830	4.8503
8.5688	5.0806
8.5547	5.2280
8.5406	5.2944
8.5266	5.3269
8.5126	5.3454
8.4986	5.3569
8.4847	5.3650
8.4708	5.3794
8.4570	5.3950
8.4432	5.4167
8.4295	5.4377
8.4158	5.4668
8.4022	5.5080
8.3886	5.5517
8.3750	5.5915
8.3615	5.6396
8.3481	5.7043
8.3347	5.7766
8.3213	5.8428
8.3079	5.9121
8.2946	5.9963
8.2814	6.0947
8.2682	6.1907
8.2550	6.2756
8.2419	6.3452
8.2288	6.3882
8.2158	6.3918
8.2028	6.3769
8.1898	6.3401
8.1769	6.2585
8.1640	6.1255
8.1512	5.9560
8.1384	5.7500
8.1256	5.5232
8.1129	5.3005
8.1002	5.0947
8.0876	4.8970
8.0750	4.6990
8.0624	4.5083
8.0499	4.3291
8.0374	4.1558
8.0250	3.9944
8.0126	3.8484
8.0002	3.7017
7.9879	3.5569
7.9756	3.4224
7.9634	3.2966
7.9512	3.1789
7.9390	3.0720
7.9268	2.9768
7.9147	2.8818
7.9027	2.7847
7.8906	2.6990
7.8786	2.6345
7.8667	2.5776
7.8548	2.5176
7.8429	2.4575
7.8310	2.4089
7.8192	2.3738
7.8075	2.3518
7.7957	2.3467
7.7840	2.3498
7.7723	2.3472
7.7607	2.3445
7.7491	2.3430
7.7375	2.3332
7.7260	2.3259
7.7145	2.3227
7.7031	2.3110
7.6916	2.2900
7.6802	2.2703
7.6689	2.2683
7.6575	2.2681
7.6462	2.2568
7.6350	2.2510
7.6238	2.2517
7.6126	2.2427
7.6014	2.2280
7.5903	2.2109
7.5792	2.2024
7.5681	2.1977
7.5571	2.1995
7.5461	2.2163
7.5351	2.2302
7.5242	2.2256
7.5133	2.2224
7.5024	2.2207
7.4916	2.2234
7.4807	2.2307
7.4700	2.2439
7.4592	2.2649
7.4485	2.2749
7.4378	2.2644
7.4272	2.2600
7.4165	2.2676
7.4059	2.2815
7.3954	2.2922
7.3848	2.2986
7.3743	2.3054
7.3639	2.3074
7.3534	2.2991
7.3430	2.2952
7.3326	2.2983
7.3222	2.3037
7.3119	2.3088
7.3016	2.3162
7.2914	2.3259
7.2811	2.3437
7.2709	2.3689
7.2607	2.3916
7.2506	2.4119
7.2404	2.4287
7.2303	2.4346
7.2203	2.4363
7.2102	2.4409
7.2002	2.4514
7.1902	2.4634
7.1803	2.4768
7.1703	2.5017
7.1604	2.5288
7.1506	2.5425
7.1407	2.5588
7.1309	2.5791
7.1211	2.6013
7.1113	2.6155
7.1016	2.6306
7.0919	2.6499
7.0822	2.6614
7.0725	2.6636
7.0629	2.6648
7.0533	2.6619
7.0437	2.6667
7.0341	2.6731
7.0246	2.6855
7.0151	2.7136
7.0056	2.7419
6.9962	2.7703
6.9867	2.8042
6.9773	2.8408
6.9679	2.8833
6.9586	2.9224
6.9493	2.9607
6.9400	3.0010
6.9307	3.0300
6.9214	3.0544
6.9122	3.0796
6.9030	3.1106
6.8938	3.1355
6.8847	3.1472
6.8755	3.1643
6.8664	3.1868
6.8573	3.2170
6.8483	3.2600
6.8393	3.3022
6.8302	3.3459
6.8213	3.3789
6.8123	3.3987
6.8034	3.4267
6.7944	3.4626
6.7855	3.5078
6.7767	3.5583
6.7678	3.6047
6.7590	3.6418
6.7502	3.6716
6.7414	3.6816
6.7327	3.6831
6.7239	3.6897
6.7152	3.7009
6.7065	3.7073
6.6979	3.7148
6.6892	3.7219
6.6806	3.7317
6.6720	3.7344
6.6634	3.7234
6.6549	3.7124
6.6464	3.7126
6.6378	3.7126
6.6294	3.7078
6.6209	3.6933
6.6124	3.6831
6.6040	3.6711
6.5956	3.6406
6.5872	3.6099
6.5789	3.5974
6.5705	3.5918
6.5622	3.5871
6.5539	3.5928
6.5456	3.6116
6.5374	3.6330
6.5292	3.6538
6.5209	3.6680
6.5128	3.6631
6.5046	3.6550
6.4964	3.6628
6.4883	3.6868
6.4802	3.7161
6.4721	3.7595
6.4640	3.8100
6.4560	3.8396
6.4480	3.8481
6.4399	3.8364
6.4320	3.8074
6.4240	3.7737
6.4160	3.7441
6.4081	3.7290
6.4002	3.7217
6.3923	3.7178
6.3844	3.7229
6.3766	3.7117
6.3687	3.6777
6.3609	3.6392
6.3531	3.5981
6.3454	3.5586
6.3376	3.5295
6.3299	3.5029
6.3221	3.4717
6.3144	3.4343
6.3068	3.3828
6.2991	3.3230
6.2914	3.2651
6.2838	3.2192
6.2762	3.1902
6.2686	3.1577
6.2611	3.1199
6.2535	3.0820
6.2460	3.0398
6.2385	2.9863
6.2310	2.9346
6.2235	2.9021
6.2160	2.8760
6.2086	2.8428
6.2011	2.8093
6.1937	2.7827
6.1863	2.7541
6.1790	2.7200
6.1716	2.6990
6.1643	2.6826
6.1570	2.6543
6.1496	2.6274
6.1424	2.6145
6.1351	2.6057
6.1278	2.5991
6.1206	2.6011
6.1134	2.6160
6.1062	2.6233
6.0990	2.6240
6.0918	2.6299
6.0847	2.6409
6.0776	2.6426
6.0704	2.6370
6.0633	2.6357
6.0563	2.6492
6.0492	2.6709
6.0421	2.6975
6.0351	2.7261
6.0281	2.7607
6.0211	2.7964
6.0141	2.8279
6.0071	2.8603
6.0002	2.8957
5.9932	2.9289
5.9863	2.9622
5.9794	3.0005
5.9725	3.0403
5.9657	3.0879
5.9588	3.1370
5.9520	3.1843
5.9451	3.2339
5.9383	3.2817
5.9315	3.3411
5.9247	3.4187
5.9180	3.4951
5.9112	3.5793
5.9045	3.6628
5.8978	3.7397
5.8911	3.8220
5.8844	3.9126
5.8777	4.0271
5.8711	4.1504
5.8644	4.2690
5.8578	4.3974
5.8512	4.5190
5.8446	4.6081
5.8380	4.6777
5.8314	4.7527
5.8249	4.8423
5.8184	4.9358
5.8118	5.0344
5.8053	5.1470
5.7988	5.2615
5.7923	5.3557
5.7859	5.4258
5.7794	5.4985
5.7730	5.5793
5.7666	5.6579
5.7602	5.7329
5.7538	5.8147
5.7474	5.9106
5.7410	6.0100
5.7347	6.0989
5.7283	6.1772
5.7220	6.2502
5.7157	6.3154
5.7094	6.3681
5.7031	6.4143
5.6969	6.4614
5.6906	6.5093
5.6844	6.5447
5.6782	6.5515
5.6719	6.5476
5.6657	6.5364
5.6596	6.4939
5.6534	6.4370
5.6472	6.3879
5.6411	6.3533
5.6349	6.3257
5.6288	6.3093
5.6227	6.3149
5.6166	6.3276
5.6106	6.3281
5.6045	6.3266
5.5984	6.3191
5.5924	6.3093
5.5864	6.3074
5.5804	6.3208
5.5744	6.3401
5.5684	6.3630
5.5624	6.3896
5.5564	6.4184
5.5505	6.4431
5.5445	6.4729
5.5386	6.5173
5.5327	6.5603
5.5268	6.5972
5.5209	6.6372
5.5151	6.6750
5.5092	6.7063
5.5033	6.7353
5.4975	6.7693
5.4917	6.8056
5.4859	6.8401
5.4801	6.8833
5.4743	6.9492
5.4685	7.0244
5.4628	7.0962
5.4570	7.1640
5.4513	7.2202
5.4455	7.2597
5.4398	7.2739
5.4341	7.2676
5.4284	7.2507
5.4228	7.2190
5.4171	7.1697
5.4114	7.1120
5.4058	7.0442
5.4002	6.9587
5.3945	6.8545
5.3889	6.7488
5.3833	6.6499
5.3778	6.5613
5.3722	6.4924
5.3666	6.4397
5.3611	6.3984
5.3555	6.3689
5.3500	6.3640
5.3445	6.3816
5.3390	6.4153
5.3335	6.4707
5.3280	6.5405
5.3225	6.6040
5.3171	6.6575
5.3116	6.7129
5.3062	6.7724
5.3008	6.8291
5.2954	6.8899
5.2900	6.9656
5.2846	7.0544
5.2792	7.1528
5.2738	7.2539
5.2684	7.3618
5.2631	7.4812
5.2578	7.6091
5.2524	7.7400
5.2471	7.8774
5.2418	8.0315
5.2365	8.1997
5.2312	8.3520
5.2260	8.4868
5.2207	8.6196
5.2154	8.7368
5.2102	8.8249
5.2050	8.8899
5.1998	8.9529
5.1945	9.0180
5.1893	9.0578
5.1842	9.0840
5.1790	9.1186
5.1738	9.1455
5.1686	9.1618
5.1635	9.1762
5.1584	9.1960
5.1532	9.2275
5.1481	9.2566
5.1430	9.2895
5.1379	9.3266
5.1328	9.3586
5.1277	9.4016
5.1227	9.4536
5.1176	9.4990
5.1126	9.5432
5.1075	9.5852
5.1025	9.6247
5.0975	9.6494
5.0925	9.6511
5.0875	9.6438
5.0825	9.6421
5.0775	9.6333
5.0726	9.6250
5.0676	9.6394
5.0627	9.6726
5.0577	9.7129
5.0528	9.7485
5.0479	9.7871
5.0430	9.8337
5.0380	9.8696
5.0332	9.8911
5.0283	9.9096
5.0234	9.9277
5.0185	9.9455
5.0137	9.9677
5.0088	9.9995
5.0040	10.0434
4.9992	10.0957
4.9944	10.1589
4.9896	10.2436
4.9848	10.3423
4.9800	10.4521
4.9752	10.5825
4.9704	10.7280
4.9657	10.8823
4.9609	11.0322
4.9562	11.1753
4.9514	11.3076
4.9467	11.4104
4.9420	11.4887
4.9373	11.5608
4.9326	11.6328
4.9279	11.7170
4.9232	11.8244
4.9186	11.9682
4.9139	12.1545
4.9092	12.3674
4.9046	12.5935
4.9000	12.8288
4.8953	13.0683
4.8907	13.2976
4.8861	13.5090
4.8815	13.7116
4.8769	13.9028
4.8723	14.0720
4.8678	14.2170
4.8632	14.3454
4.8586	14.4675
4.8541	14.5815
4.8495	14.6911
4.8450	14.7968
4.8405	14.8967
4.8360	14.9980
4.8315	15.0908
4.8270	15.1718
4.8225	15.2534
4.8180	15.3335
4.8135	15.4077
4.8090	15.4809
4.8046	15.5542
4.8001	15.6316
4.7957	15.7060
4.7913	15.7744
4.7868	15.8400
4.7824	15.9043
4.7780	15.9707
4.7736	16.0429
4.7692	16.1081
4.7648	16.1628
4.7605	16.2180
4.7561	16.2766
4.7517	16.3293
4.7474	16.3772
4.7431	16.4253
4.7387	16.4724
4.7344	16.5092
4.7301	16.5341
4.7258	16.5590
4.7215	16.5961
4.7172	16.6337
4.7129	16.6508
4.7086	16.6511
4.7043	16.6469
4.7000	16.6267
4.6958	16.5900
4.6915	16.5581
4.6873	16.5463
4.6831	16.5610
4.6788	16.5986
4.6746	16.6638
4.6704	16.7553
4.6662	16.8562
4.6620	16.9604
4.6578	17.0705
4.6536	17.1767
4.6495	17.2844
4.6453	17.3945
4.6411	17.5046
4.6370	17.6120
4.6328	17.7116
4.6287	17.8066
4.6246	17.8960
4.6205	17.9785
4.6163	18.0647
4.6122	18.1408
4.6081	18.2063
4.6040	18.2719
4.6000	18.3317
4.5959	18.3864
4.5918	18.4348
4.5877	18.4887
4.5837	18.5517
4.5796	18.6025
4.5756	18.6450
4.5716	18.6940
4.5675	18.7343
4.5635	18.7653
4.5595	18.7883
4.5555	18.8078
4.5515	18.8212
4.5475	18.8210
4.5435	18.8117
4.5395	18.8032
4.5356	18.7893
4.5316	18.7648
4.5276	18.7275
4.5237	18.6835
4.5197	18.6352
4.5158	18.5688
4.5119	18.4946
4.5080	18.4218
4.5040	18.3532
4.5001	18.2978
4.4962	18.2634
4.4923	18.2500
4.4884	18.2463
4.4846	18.2434
4.4807	18.2399
4.4768	18.2348
4.4730	18.2375
4.4691	18.2622
4.4652	18.2980
4.4614	18.3454
4.4576	18.4094
4.4537	18.4799
4.4499	18.5505
4.4461	18.6220
4.4423	18.6975
4.4385	18.7736
4.4347	18.8310
4.4309	18.8779
4.4271	18.9257
4.4233	18.9760
4.4196	19.0336
4.4158	19.0937
4.4120	19.1560
4.4083	19.2233
4.4045	19.2836
4.4008	19.3374
4.3971	19.3898
4.3934	19.4536
4.3896	19.5312
4.3859	19.6105
4.3822	19.6904
4.3785	19.7756
4.3748	19.8535
4.3711	19.9133
4.3674	19.9606
4.3638	20.0017
4.3601	20.0436
4.3564	20.0881
4.3528	20.1367
4.3491	20.1826
4.3455	20.2189
4.3418	20.2480
4.3382	20.2788
4.3346	20.3002
4.3310	20.3190
4.3273	20.3444
4.3237	20.3723
4.3201	20.3901
4.3165	20.4025
4.3129	20.4055
4.3094	20.3981
4.3058	20.3737
4.3022	20.3439
4.2986	20.3203
4.2951	20.3117
4.2915	20.3139
4.2880	20.3073
4.2844	20.2941
4.2809	20.2812
4.2774	20.2707
4.2738	20.2758
4.2703	20.3059
4.2668	20.3681
4.2633	20.4506
4.2598	20.5114
4.2563	20.5502
4.2528	20.5566
4.2493	20.5378
4.2458	20.5078
4.2424	20.4873
4.2389	20.4873
4.2354	20.5036
4.2320	20.5214
4.2285	20.5397
4.2251	20.5666
4.2216	20.6003
4.2182	20.6193
4.2148	20.6301
4.2113	20.6491
4.2079	20.6708
4.2045	20.6833
4.2011	20.6906
4.1977	20.7106
4.1943	20.7258
4.1909	20.7231
4.1875	20.7192
4.1841	20.7285
4.1808	20.7421
4.1774	20.7524
4.1740	20.7697
4.1707	20.7871
4.1673	20.8012
4.1640	20.8078
4.1606	20.8017
4.1573	20.7949
4.1540	20.7866
4.1506	20.7871
4.1473	20.8017
4.1440	20.8110
4.1407	20.8188
4.1374	20.8183
4.1341	20.8073
4.1308	20.8105
4.1275	20.8195
4.1242	20.8164
4.1209	20.8029
4.1177	20.7949
4.1144	20.7954
4.1111	20.7951
4.1079	20.7985
4.1046	20.8100
4.1014	20.8203
4.0981	20.8195
4.0949	20.8120
4.0917	20.8132
4.0884	20.8144
4.0852	20.8012
4.0820	20.7858
4.0788	20.7663
4.0756	20.7507
4.0724	20.7499
4.0692	20.7497
4.0660	20.7521
4.0628	20.7592
4.0596	20.7568
4.0565	20.7453
4.0533	20.7255
4.0501	20.7031
4.0470	20.6826
4.0438	20.6594
4.0406	20.6396
4.0375	20.6264
4.0344	20.6115
4.0312	20.5959
4.0281	20.5834
4.0250	20.5688
4.0218	20.5590
4.0187	20.5400
4.0156	20.5168
4.0125	20.4973
4.0094	20.4777
4.0063	20.4567
4.0032	20.4379
4.0001	20.4186
3.9970	20.4011
3.9940	20.3771
3.9909	20.3610
3.9878	20.3442
3.9847	20.3266
3.9817	20.3049
3.9786	20.2832
3.9756	20.2661
3.9725	20.2543
3.9695	20.2478
3.9665	20.2446
3.9634	20.2431
3.9604	20.2404
3.9574	20.2348
3.9544	20.2192
3.9513	20.1936
3.9483	20.1657
3.9453	20.1271
3.9423	20.0849
3.9393	20.0559
3.9363	20.0339
3.9333	20.0178
3.9304	19.9968
3.9274	19.9802
3.9244	19.9628
3.9214	19.9335
3.9185	19.9040
3.9155	19.8779
3.9126	19.8488
3.9096	19.8129
3.9067	19.7873
3.9037	19.7705
3.9008	19.7470
3.8979	19.7126
3.8949	19.6787
3.8920	19.6484
3.8891	19.6032
3.8862	19.5532
3.8833	19.5200
3.8804	19.4865
3.8775	19.4519
3.8746	19.4152
3.8717	19.3759
3.8688	19.3320
3.8659	19.2817
3.8630	19.2263
3.8601	19.1572
3.8573	19.0898
3.8544	19.0483
3.8515	19.0266
3.8487	19.0097
3.8458	18.9938
3.8430	18.9719
3.8401	18.9321
3.8373	18.8635
3.8344	18.7968
3.8316	18.7543
3.8288	18.7255
3.8259	18.6948
3.8231	18.6582
3.8203	18.6118
3.8175	18.5554
3.8147	18.5024
3.8119	18.4484
3.8091	18.3903
3.8063	18.3320
3.8035	18.2761
3.8007	18.2272
3.7979	18.1811
3.7951	18.1306
3.7924	18.0803
3.7896	18.0268
3.7868	17.9638
3.7841	17.9060
3.7813	17.8515
3.7785	17.7939
3.7758	17.7448
3.7730	17.6960
3.7703	17.6386
3.7676	17.5837
3.7648	17.5244
3.7621	17.4697
3.7594	17.4101
3.7566	17.3422
3.7539	17.2746
3.7512	17.2124
3.7485	17.1513
3.7458	17.0839
3.7431	17.0092
3.7404	16.9379
3.7377	16.8828
3.7350	16.8313
3.7323	16.7751
3.7296	16.7299
3.7269	16.6862
3.7242	16.6320
3.7216	16.5732
3.7189	16.5051
3.7162	16.4360
3.7136	16.3784
3.7109	16.3288
3.7083	16.2824
3.7056	16.2307
3.7030	16.1735
3.7003	16.1066
3.6977	16.0207
3.6950	15.9355
3.6924	15.8833
3.6898	15.8557
3.6872	15.8271
3.6845	15.7985
3.6819	15.7773
3.6793	15.7419
3.6767	15.6897
3.6741	15.6374
3.6715	15.5776
3.6689	15.5068
3.6663	15.4228
3.6637	15.3400
3.6611	15.2785
3.6585	15.2260
3.6560	15.1772
3.6534	15.1421
3.6508	15.1042
3.6482	15.0605
3.6457	15.0075
3.6431	14.9492
3.6406	14.9011
3.6380	14.8530
3.6355	14.7961
3.6329	14.7351
3.6304	14.6762
3.6278	14.6245
3.6253	14.5681
3.6227	14.5095
3.6202	14.4526
3.6177	14.3960
3.6152	14.3335
3.6127	14.2712
3.6101	14.2199
3.6076	14.1750
3.6051	14.1201
3.6026	14.0610
3.6001	14.0000
3.5976	13.9338
3.5951	13.8650
3.5926	13.7949
3.5901	13.7258
3.5876	13.6643
3.5852	13.6086
3.5827	13.5637
3.5802	13.5161
3.5777	13.4589
3.5753	13.3991
3.5728	13.3359
3.5704	13.2810
3.5679	13.2314
3.5654	13.1787
3.5630	13.1225
3.5605	13.0549
3.5581	12.9780
3.5557	12.9057
3.5532	12.8442
3.5508	12.7971
3.5484	12.7514
3.5459	12.7026
3.5435	12.6489
3.5411	12.5832
3.5387	12.4995
3.5363	12.4082
3.5338	12.3100
3.5314	12.2221
3.5290	12.1552
3.5266	12.0898
3.5242	12.0163
3.5218	11.9384
3.5195	11.8476
3.5171	11.7404
3.5147	11.6259
3.5123	11.5212
3.5099	11.4248
3.5075	11.3261
3.5052	11.2480
3.5028	11.1911
3.5004	11.1408
3.4981	11.1018
3.4957	11.0771
3.4934	11.0539
3.4910	11.0173
3.4887	10.9809
3.4863	10.9543
3.4840	10.9209
3.4816	10.8740
3.4793	10.8261
3.4770	10.7800
3.4746	10.7295
3.4723	10.6706
3.4700	10.6167
3.4677	10.5715
3.4653	10.5385
3.4630	10.5093
3.4607	10.4724
3.4584	10.4333
3.4561	10.3818
3.4538	10.3098
3.4515	10.2199
3.4492	10.1316
3.4469	10.0542
3.4446	9.9861
3.4423	9.9172
3.4400	9.8567
3.4378	9.8066
3.4355	9.7641
3.4332	9.7116
3.4309	9.6418
3.4287	9.5571
3.4264	9.4592
3.4241	9.3608
3.4219	9.2693
3.4196	9.1931
3.4174	9.1426
3.4151	9.1020
3.4129	9.0681
3.4106	9.0451
3.4084	9.0329
3.4061	9.0322
3.4039	9.0324
3.4017	9.0198
3.3994	9.0046
3.3972	8.9934
3.3950	8.9836
3.3928	8.9753
3.3906	8.9707
3.3883	8.9477
3.3861	8.9082
3.3839	8.8684
3.3817	8.8352
3.3795	8.8076
3.3773	8.7737
3.3751	8.7402
3.3729	8.7143
3.3707	8.6902
3.3685	8.6762
3.3663	8.6736
3.3641	8.6689
3.3620	8.6504
3.3598	8.6213
3.3576	8.5888
3.3554	8.5581
3.3533	8.5383
3.3511	8.5232
3.3489	8.5007
3.3468	8.4709
3.3446	8.4409
3.3425	8.4155
3.3403	8.3906
3.3382	8.3674
3.3360	8.3379
3.3339	8.2986
3.3317	8.2519
3.3296	8.2004
3.3274	8.1526
3.3253	8.1128
3.3232	8.0866
3.3210	8.0679
3.3189	8.0278
3.3168	7.9804
3.3147	7.9421
3.3126	7.9089
3.3104	7.8645
3.3083	7.8135
3.3062	7.7707
3.3041	7.7302
3.3020	7.6782
3.2999	7.6267
3.2978	7.5859
3.2957	7.5537
3.2936	7.5137
3.2915	7.4656
3.2894	7.4238
3.2874	7.3918
3.2853	7.3581
3.2832	7.3181
3.2811	7.2700
3.2790	7.2224
3.2770	7.1711
3.2749	7.1186
3.2728	7.0742
3.2708	7.0351
3.2687	6.9958
3.2666	6.9592
3.2646	6.9201
3.2625	6.8896
3.2605	6.8572
3.2584	6.8176
3.2564	6.7839
3.2543	6.7539
3.2523	6.7251
3.2503	6.6889
3.2482	6.6477
3.2462	6.6167
3.2442	6.5788
3.2421	6.5307
3.2401	6.4875
3.2381	6.4570
3.2361	6.4289
3.2340	6.4016
3.2320	6.3782
3.2300	6.3520
3.2280	6.3266
3.2260	6.3103
3.2240	6.2817
3.2220	6.2471
3.2200	6.2034
3.2180	6.1628
3.2160	6.1181
3.2140	6.0720
