Name:  Limestone CaCO3
Type:  Rock
Class: Sedimentary
Subclass: Limestone 
Particle Size:  Whole rock chips
Sample No.:  ro397
Owner:  Larry Rowan, USGS
Wavelength range:  VNIR SWIR IR
Origin:  Ronda, Spain

Description:  gray vesicular vuggy limestone





Measurement:  Reflectance
First Column:  X
Second Column:  Y
X Units:  Wavelength (micrometers)
Y Units:  Reflectance (percent)
First X Value:  0.4
Last X Value:  14.01309
Number of X Values:  2826
Additional Information:  ls397a.txt

0.4	        .219000
0.401	        .220000
0.402	        .220000
0.403	        .220000
0.404	        .220000
0.405	        .219000
0.406	        .221000
0.407	        .221000
0.408	        .217000
0.409	        .219000
0.41	        .217000
0.411	        .216000
0.412	        .219000
0.413	        .219000
0.414	        .219000
0.415	        .219000
0.416	        .219000
0.417	        .219000
0.418	        .219000
0.419	        .216000
0.42	        .215000
0.421	        .216000
0.422	        .219000
0.423	        .219000
0.424	        .219000
0.425	        .219000
0.426	        .219000
0.427	        .216000
0.428	        .220000
0.429	        .221000
0.43	        .217000
0.431	        .219000
0.432	        .217000
0.433	        .215000
0.434	        .215000
0.435	        .219000
0.436	        .219000
0.437	        .216000
0.438	        .217000
0.439	        .217000
0.44	        .217000
0.441	        .220000
0.442	        .216000
0.443	        .219000
0.444	        .215000
0.445	        .216000
0.446	        .217000
0.447	        .219000
0.448	        .219000
0.449	        .217000
0.45	        .219000
0.451	        .217000
0.452	        .216000
0.453	        .215000
0.454	        .216000
0.455	        .216000
0.456	        .217000
0.457	        .217000
0.458	        .219000
0.459	        .219000
0.46	        .216000
0.461	        .217000
0.462	        .217000
0.463	        .214000
0.464	        .219000
0.465	        .217000
0.466	        .217000
0.467	        .216000
0.468	        .219000
0.469	        .219000
0.47	        .220000
0.471	        .220000
0.472	        .219000
0.473	        .217000
0.474	        .217000
0.475	        .220000
0.476	        .219000
0.477	        .216000
0.478	        .220000
0.479	        .222000
0.48	        .219000
0.481	        .219000
0.482	        .219000
0.483	        .221000
0.484	        .219000
0.485	        .223000
0.486	        .217000
0.487	        .217000
0.488	        .219000
0.489	        .219000
0.49	        .219000
0.491	        .221000
0.492	        .221000
0.493	        .222000
0.494	        .220000
0.495	        .222000
0.496	        .223000
0.497	        .223000
0.498	        .225000
0.499	        .221000
0.5	        .222000
0.501	        .223000
0.502	        .226000
0.503	        .225000
0.504	        .225000
0.505	        .225000
0.506	        .222000
0.507	        .222000
0.508	        .223000
0.509	        .225000
0.51	        .225000
0.511	        .225000
0.512	        .228000
0.513	        .228000
0.514	        .226000
0.515	        .227000
0.516	        .227000
0.517	        .228000
0.518	        .230000
0.519	        .231000
0.52	        .230000
0.521	        .231000
0.522	        .231000
0.523	        .231000
0.524	        .231000
0.525	        .232000
0.526	        .232000
0.527	        .231000
0.528	        .233000
0.529	        .231000
0.53	        .234000
0.531	        .232000
0.532	        .233000
0.533	        .237000
0.534	        .234000
0.535	        .234000
0.536	        .234000
0.537	        .236000
0.538	        .233000
0.539	        .234000
0.54	        .234000
0.541	        .237000
0.542	        .237000
0.543	        .233000
0.544	        .236000
0.545	        .236000
0.546	        .236000
0.547	        .238000
0.548	        .238000
0.549	        .239000
0.55	        .239000
0.551	        .242000
0.552	        .241000
0.553	        .242000
0.554	        .242000
0.555	        .243000
0.556	        .243000
0.557	        .243000
0.558	        .243000
0.559	        .239000
0.56	        .241000
0.561	        .241000
0.562	        .241000
0.563	        .242000
0.564	        .242000
0.565	        .242000
0.566	        .244000
0.567	        .242000
0.568	        .241000
0.569	        .242000
0.57	        .242000
0.571	        .242000
0.572	        .244000
0.573	        .243000
0.574	        .242000
0.575	        .242000
0.576	        .242000
0.577	        .245000
0.578	        .245000
0.579	        .243000
0.58	        .244000
0.581	        .247000
0.582	        .247000
0.583	        .244000
0.584	        .248000
0.585	        .245000
0.586	        .247000
0.587	        .248000
0.588	        .244000
0.589	        .247000
0.59	        .244000
0.591	        .247000
0.592	        .243000
0.593	        .245000
0.594	        .247000
0.595	        .245000
0.596	        .247000
0.597	        .247000
0.598	        .245000
0.599	        .243000
0.6	        .244000
0.601	        .244000
0.602	        .242000
0.603	        .247000
0.604	        .245000
0.605	        .245000
0.606	        .244000
0.607	        .244000
0.608	        .245000
0.609	        .245000
0.61	        .244000
0.611	        .244000
0.612	        .245000
0.613	        .247000
0.614	        .244000
0.615	        .243000
0.616	        .243000
0.617	        .243000
0.618	        .242000
0.619	        .243000
0.62	        .244000
0.621	        .244000
0.622	        .244000
0.623	        .249000
0.624	        .248000
0.625	        .248000
0.626	        .245000
0.627	        .244000
0.628	        .244000
0.629	        .244000
0.63	        .244000
0.631	        .244000
0.632	        .245000
0.633	        .244000
0.634	        .243000
0.635	        .245000
0.636	        .244000
0.637	        .244000
0.638	        .247000
0.639	        .247000
0.64	        .247000
0.641	        .243000
0.642	        .243000
0.643	        .243000
0.644	        .243000
0.645	        .244000
0.646	        .242000
0.647	        .244000
0.648	        .244000
0.649	        .244000
0.65	        .244000
0.651	        .243000
0.652	        .244000
0.653	        .247000
0.654	        .247000
0.655	        .247000
0.656	        .247000
0.657	        .247000
0.658	        .249000
0.659	        .245000
0.66	        .247000
0.661	        .245000
0.662	        .247000
0.663	        .247000
0.664	        .245000
0.665	        .244000
0.666	        .244000
0.667	        .243000
0.668	        .247000
0.669	        .247000
0.67	        .245000
0.671	        .247000
0.672	        .248000
0.673	        .244000
0.674	        .245000
0.675	        .244000
0.676	        .245000
0.677	        .244000
0.678	        .245000
0.679	        .247000
0.68	        .249000
0.681	        .247000
0.682	        .243000
0.683	        .245000
0.684	        .249000
0.685	        .248000
0.686	        .247000
0.687	        .247000
0.688	        .247000
0.689	        .248000
0.69	        .250000
0.691	        .250000
0.692	        .254000
0.693	        .253000
0.694	        .253000
0.695	        .254000
0.696	        .255000
0.697	        .255000
0.698	        .258000
0.699	        .255000
0.7	        .255000
0.701	        .258000
0.702	        .256000
0.703	        .259000
0.704	        .260000
0.705	        .260000
0.706	        .260000
0.707	        .263000
0.708	        .261000
0.709	        .261000
0.71	        .263000
0.711	        .261000
0.712	        .264000
0.713	        .264000
0.714	        .264000
0.715	        .266000
0.716	        .264000
0.717	        .264000
0.718	        .264000
0.719	        .266000
0.72	        .267000
0.721	        .269000
0.722	        .267000
0.723	        .267000
0.724	        .266000
0.725	        .269000
0.726	        .270000
0.727	        .271000
0.728	        .272000
0.729	        .269000
0.73	        .270000
0.731	        .271000
0.732	        .271000
0.733	        .274000
0.734	        .272000
0.735	        .272000
0.736	        .275000
0.737	        .275000
0.738	        .274000
0.739	        .272000
0.74	        .274000
0.741	        .278000
0.742	        .277000
0.743	        .277000
0.744	        .278000
0.745	        .278000
0.746	        .278000
0.747	        .277000
0.748	        .277000
0.749	        .277000
0.75	        .277000
0.751	        .280000
0.752	        .281000
0.753	        .281000
0.754	        .281000
0.755	        .283000
0.756	        .284000
0.757	        .284000
0.758	        .283000
0.759	        .284000
0.76	        .283000
0.761	        .287000
0.762	        .286000
0.763	        .286000
0.764	        .287000
0.765	        .288000
0.766	        .284000
0.767	        .288000
0.768	        .287000
0.769	        .287000
0.77	        .288000
0.771	        .291000
0.772	        .289000
0.773	        .292000
0.774	        .292000
0.775	        .289000
0.776	        .291000
0.777	        .292000
0.778	        .292000
0.779	        .292000
0.78	        .293000
0.781	        .291000
0.782	        .295000
0.783	        .299000
0.784	        .299000
0.785	        .297000
0.786	        .298000
0.787	        .299000
0.788	        .300000
0.789	        .302000
0.79	        .299000
0.791	        .300000
0.792	        .302000
0.793	        .302000
0.794	        .299000
0.795	        .300000
0.796	        .303000
0.797	        .302000
0.798	        .306000
0.799	        .306000
0.8	        .313000
0.804	        .315000
0.808	        .315000
0.812	        .331000
0.816	        .321000
0.82	        .325000
0.824	        .330000
0.828	        .344000
0.832	        .333000
0.836	        .330000
0.84	        .349000
0.844	        .346000
0.848	        .339000
0.852	        .359000
0.856	        .358000
0.86	        .348000
0.864	        .365000
0.868	        .370000
0.872	        .364000
0.876	        .375000
0.88	        .380000
0.884	        .376000
0.888	        .383000
0.892	        .391000
0.896	        .386000
0.9	        .399000
0.904	        .392000
0.908	        .385000
0.912	        .402000
0.916	        .398000
0.92	        .396000
0.924	        .413000
0.928	        .404000
0.932	        .402000
0.936	        .416000
0.94	        .410000
0.944	        .416000
0.948	        .416000
0.952	        .418000
0.956	        .415000
0.96	        .413000
0.964	        .422000
0.968	        .424000
0.972	        .422000
0.976	        .422000
0.98	        .426000
0.984	        .430000
0.988	        .427000
0.992	        .427000
0.996	        .430000
1	        .438000
1.004	        .435000
1.008	        .440000
1.012	        .431000
1.016	        .432000
1.02	        .446000
1.024	        .443000
1.028	        .444000
1.032	        .441000
1.036	        .449000
1.04	        .437000
1.044	        .441000
1.048	        .444000
1.052	        .451000
1.056	        .452000
1.06	        .451000
1.064	        .453000
1.068	        .458000
1.072	        .455000
1.076	        .452000
1.08	        .458000
1.084	        .460000
1.088	        .457000
1.092	        .453000
1.096	        .463000
1.1	        .463000
1.104	        .464000
1.108	        .457000
1.112	        .464000
1.116	        .469000
1.12	        .463000
1.124	        .463000
1.128	        .469000
1.132	        .465000
1.136	        .470000
1.14	        .476000
1.144	        .464000
1.148	        .469000
1.152	        .479000
1.156	        .479000
1.16	        .469000
1.164	        .471000
1.168	        .470000
1.172	        .481000
1.176	        .479000
1.18	        .475000
1.184	        .479000
1.188	        .481000
1.192	        .480000
1.196	        .476000
1.2	        .486000
1.204	        .482000
1.208	        .481000
1.212	        .482000
1.216	        .481000
1.22	        .484000
1.224	        .482000
1.228	        .477000
1.232	        .480000
1.236	        .479000
1.24	        .484000
1.244	        .486000
1.248	        .485000
1.252	        .487000
1.256	        .488000
1.26	        .485000
1.264	        .485000
1.268	        .493000
1.272	        .497000
1.276	        .491000
1.28	        .491000
1.284	        .495000
1.288	        .498000
1.292	        .488000
1.296	        .470000
1.3	        .488000
1.304	        .488000
1.308	        .488000
1.312	        .493000
1.316	        .498000
1.32	        .495000
1.324	        .498000
1.328	        .497000
1.332	        .493000
1.336	        .491000
1.34	        .495000
1.344	        .495000
1.348	        .499000
1.352	        .503000
1.356	        .497000
1.36	        .491000
1.364	        .487000
1.368	        .490000
1.372	        .496000
1.376	        .497000
1.38	        .492000
1.384	        .487000
1.388	        .486000
1.392	        .486000
1.396	        .487000
1.4	        .485000
1.404	        .484000
1.408	        .479000
1.412	        .474000
1.416	        .474000
1.42	        .479000
1.424	        .482000
1.428	        .475000
1.432	        .473000
1.436	        .470000
1.44	        .466000
1.444	        .471000
1.448	        .477000
1.452	        .473000
1.456	        .470000
1.46	        .471000
1.464	        .470000
1.468	        .469000
1.472	        .476000
1.476	        .473000
1.48	        .471000
1.484	        .473000
1.488	        .475000
1.492	        .480000
1.496	        .482000
1.5	        .484000
1.504	        .479000
1.508	        .480000
1.512	        .474000
1.516	        .477000
1.52	        .488000
1.524	        .484000
1.528	        .479000
1.532	        .477000
1.536	        .479000
1.54	        .488000
1.544	        .488000
1.548	        .481000
1.552	        .479000
1.556	        .479000
1.56	        .490000
1.564	        .493000
1.568	        .486000
1.572	        .479000
1.576	        .484000
1.58	        .490000
1.584	        .492000
1.588	        .487000
1.592	        .491000
1.596	        .488000
1.6	        .495000
1.604	        .499000
1.608	        .492000
1.612	        .491000
1.616	        .491000
1.62	        .497000
1.624	        .502000
1.628	        .495000
1.632	        .491000
1.636	        .488000
1.64	        .496000
1.644	        .502000
1.648	        .501000
1.652	        .493000
1.656	        .490000
1.66	        .495000
1.664	        .501000
1.668	        .498000
1.672	        .496000
1.676	        .495000
1.68	        .495000
1.684	        .498000
1.688	        .496000
1.692	        .490000
1.696	        .487000
1.7	        .491000
1.704	        .498000
1.708	        .492000
1.712	        .484000
1.716	        .485000
1.72	        .491000
1.724	        .499000
1.728	        .496000
1.732	        .486000
1.736	        .485000
1.74	        .487000
1.744	        .493000
1.748	        .491000
1.752	        .484000
1.756	        .486000
1.76	        .488000
1.764	        .498000
1.768	        .493000
1.772	        .485000
1.776	        .484000
1.78	        .488000
1.784	        .498000
1.788	        .495000
1.792	        .493000
1.796	        .490000
1.8	        .493000
1.804	        .498000
1.808	        .495000
1.812	        .486000
1.816	        .490000
1.82	        .492000
1.824	        .497000
1.828	        .498000
1.832	        .485000
1.836	        .485000
1.84	        .485000
1.844	        .490000
1.848	        .493000
1.852	        .485000
1.856	        .482000
1.86	        .476000
1.864	        .475000
1.868	        .477000
1.872	        .466000
1.876	        .466000
1.88	        .464000
1.884	        .463000
1.888	        .457000
1.892	        .451000
1.896	        .437000
1.9	        .425000
1.904	        .416000
1.908	        .419000
1.912	        .416000
1.916	        .408000
1.92	        .400000
1.924	        .400000
1.928	        .396000
1.932	        .403000
1.936	        .407000
1.94	        .400000
1.944	        .402000
1.948	        .403000
1.952	        .400000
1.956	        .403000
1.96	        .414000
1.964	        .414000
1.968	        .411000
1.972	        .410000
1.976	        .411000
1.98	        .416000
1.984	        .418000
1.988	        .422000
1.992	        .429000
1.996	        .420000
2	        .426000
2.004	        .432000
2.008	        .438000
2.012	        .440000
2.016	        .444000
2.02	        .438000
2.024	        .440000
2.028	        .440000
2.032	        .443000
2.036	        .446000
2.04	        .446000
2.044	        .441000
2.048	        .438000
2.052	        .435000
2.056	        .435000
2.06	        .440000
2.064	        .444000
2.068	        .438000
2.072	        .441000
2.076	        .438000
2.08	        .436000
2.084	        .441000
2.088	        .442000
2.092	        .442000
2.096	        .441000
2.1	        .443000
2.10043	        .470900
2.10128	        .471800
2.10213	        .475600
2.10298	        .477100
2.10383	        .476200
2.10469	        .477300
2.10554	        .475000
2.1064	        .476700
2.10725	        .474900
2.10811	        .473900
2.10897	        .474500
2.10983	        .476700
2.11068	        .475300
2.11154	        .472100
2.1124	        .473700
2.11327	        .472600
2.11413	        .475200
2.11499	        .480100
2.11585	        .477600
2.11672	        .475000
2.11758	        .474200
2.11844	        .475300
2.11931	        .475400
2.12018	        .475400
2.12104	        .474200
2.12191	        .472400
2.12278	        .474800
2.12365	        .477900
2.12452	        .479000
2.12539	        .475200
2.12626	        .477600
2.12713	        .480000
2.12801	        .476900
2.12888	        .475300
2.12975	        .474800
2.13063	        .472000
2.1315	        .468300
2.13238	        .471700
2.13326	        .472200
2.13414	        .469300
2.13501	        .471600
2.13589	        .478700
2.13677	        .475300
2.13765	        .475800
2.13854	        .476900
2.13942	        .472400
2.1403	        .474700
2.14118	        .477600
2.14207	        .475400
2.14295	        .472600
2.14384	        .472100
2.14473	        .469700
2.14561	        .468300
2.1465	        .467300
2.14739	        .465700
2.14828	        .469100
2.14917	        .470000
2.15006	        .472000
2.15095	        .473000
2.15185	        .471700
2.15274	        .466200
2.15363	        .463200
2.15453	        .460400
2.15542	        .462400
2.15632	        .467700
2.15722	        .471600
2.15811	        .468900
2.15901	        .465700
2.15991	        .466600
2.16081	        .471200
2.16171	        .470900
2.16261	        .465800
2.16352	        .464600
2.16442	        .464500
2.16532	        .465500
2.16623	        .469600
2.16713	        .467900
2.16804	        .467700
2.16894	        .470800
2.16985	        .470200
2.17076	        .470000
2.17167	        .473300
2.17258	        .475200
2.17349	        .475100
2.1744	        .473200
2.17531	        .471500
2.17623	        .471000
2.17714	        .473400
2.17805	        .473600
2.17897	        .473100
2.17989	        .470300
2.1808	        .471800
2.18172	        .473000
2.18264	        .471800
2.18356	        .472400
2.18448	        .474900
2.1854	        .476400
2.18632	        .477800
2.18724	        .477100
2.18816	        .477800
2.18909	        .477400
2.19001	        .474100
2.19094	        .475300
2.19186	        .478900
2.19279	        .476800
2.19372	        .475100
2.19464	        .476200
2.19557	        .476200
2.1965	        .476200
2.19743	        .477800
2.19837	        .479100
2.1993	        .481400
2.20023	        .481200
2.20116	        .479400
2.2021	        .477800
2.20303	        .479700
